COUNTER,INTERPOLATED,RAW_CQ,AF3,F7,F3,FC5,T7,P7,O1,O2,P8,T8,FC6,F4,F8,AF4,GYROX,GYROY,TIMESTAMP,ES_TIMESTAMP,FUNC_ID,FUNC_VALUE,MARKER,SYNC_SIGNAL
50,0,0,4354.358974,4220,4356.410256,4400,4369.74359,4481.538462,4601.025641,4024.102564,4436.410256,4396.923077,4599.487179,4205.641026,4188.717949,4990.769231,1594,1740,71.84,14.5281105,0,0,0,0
51,0,0,4347.692308,4215.897436,4348.717949,4397.948718,4367.692308,4480,4596.410256,4024.102564,4434.871795,4384.615385,4595.897436,4203.589744,4183.589744,4980.512821,1592,1739,71.848,14.5281105,0,0,0,0
52,0,0,4341.025641,4206.153846,4348.205128,4394.358974,4364.102564,4476.923077,4590.769231,4016.410256,4432.820513,4369.74359,4586.153846,4200,4173.333333,4972.307692,1594,1740,71.856,14.5281105,0,0,0,0
53,0,0,4335.897436,4203.589744,4349.74359,4397.435897,4362.564103,4480,4594.871795,4010.25641,4430.25641,4364.102564,4576.410256,4200,4170.769231,4969.230769,1593,1737,71.864,14.5281105,0,0,0,0
54,0,0,4335.384615,4205.641026,4345.128205,4399.487179,4365.641026,4485.641026,4600.512821,4014.358974,4431.282051,4363.589744,4571.794872,4202.564103,4170.25641,4964.102564,1593,1737,71.872,14.5281105,0,0,0,0
55,0,0,4331.794872,4201.538462,4342.051282,4398.461538,4367.179487,4487.692308,4602.564103,4020,4432.820513,4355.897436,4569.230769,4196.410256,4166.153846,4956.410256,1594,1737,71.88,14.5281105,0,0,0,0
56,0,0,4326.666667,4200.512821,4347.692308,4400.512821,4367.692308,4491.794872,4607.692308,4024.102564,4437.435897,4353.846154,4571.794872,4199.487179,4168.717949,4960.512821,1594,1738,71.887,14.5281105,0,0,0,0
57,0,0,4329.74359,4203.076923,4351.794872,4398.461538,4367.692308,4493.333333,4610.25641,4026.153846,4441.538462,4362.564103,4574.871795,4212.820513,4172.307692,4968.205128,1595,1738,71.895,14.5281105,0,0,0,0
58,0,0,4335.897436,4202.051282,4349.74359,4394.358974,4366.666667,4488.205128,4604.102564,4024.102564,4436.410256,4360.512821,4570.25641,4214.871795,4169.74359,4965.641026,1594,1739,71.903,14.5281105,0,0,0,0
59,0,0,4338.974359,4202.051282,4348.205128,4396.410256,4365.128205,4484.102564,4596.410256,4015.897436,4428.717949,4351.794872,4566.666667,4209.230769,4171.282051,4965.641026,1595,1738,71.91,14.5281105,0,0,0,0
60,0,0,4343.076923,4206.153846,4353.846154,4402.051282,4366.153846,4481.538462,4593.333333,4012.307692,4432.307692,4354.358974,4569.74359,4213.333333,4174.358974,4970.769231,1593,1739,71.919,14.5281105,0,0,0,0
61,0,0,4346.153846,4209.74359,4358.461538,4406.666667,4366.153846,4480.512821,4591.794872,4014.358974,4436.410256,4354.358974,4566.666667,4220,4168.205128,4964.102564,1594,1740,71.926,14.5281105,0,0,0,0
62,0,0,4343.589744,4206.666667,4351.282051,4404.102564,4368.717949,4480,4593.333333,4014.871795,4431.282051,4344.615385,4558.461538,4216.410256,4160.512821,4954.358974,1592,1740,71.933,14.5281105,0,0,0,0
63,0,0,4336.923077,4203.589744,4341.025641,4395.897436,4374.358974,4477.435897,4595.897436,4014.871795,4430.25641,4342.051282,4554.358974,4210.769231,4162.564103,4960,1593,1741,71.942,14.5281105,0,0,0,0
64,0,466,4328.205128,4204.102564,4335.384615,4395.897436,4373.333333,4471.794872,4592.307692,4012.820513,4429.230769,4334.358974,4547.692308,4209.230769,4162.564103,4961.025641,1592,1740,71.951,14.5281105,0,0,0,0
65,0,410,4324.615385,4204.102564,4335.384615,4402.051282,4368.205128,4471.282051,4587.179487,4010.25641,4426.153846,4316.410256,4538.461538,4211.282051,4157.435897,4947.179487,1591,1741,71.959,14.5281105,0,0,0,0
66,0,497,4332.307692,4206.666667,4343.589744,4406.153846,4369.230769,4476.410256,4591.794872,4011.794872,4428.717949,4316.923077,4539.487179,4218.461538,4162.564103,4949.74359,1592,1741,71.966,15.02854061,0,0,0,0
67,0,504,4332.820513,4207.692308,4343.076923,4403.076923,4369.230769,4474.358974,4592.820513,4012.307692,4429.230769,4324.102564,4541.025641,4221.538462,4167.179487,4961.025641,1593,1741,71.974,15.02854061,0,0,0,0
68,0,502,4319.487179,4196.410256,4325.641026,4390.769231,4362.051282,4466.153846,4583.589744,4005.641026,4424.102564,4304.102564,4528.205128,4215.897436,4157.948718,4950.769231,1592,1740,71.983,15.02854061,0,0,0,0
69,0,486,4314.871795,4188.205128,4318.461538,4388.205128,4358.974359,4466.153846,4577.435897,4001.025641,4422.051282,4281.025641,4513.333333,4212.820513,4151.282051,4937.948718,1592,1741,71.989,15.02854061,0,0,0,0
70,0,456,4323.589744,4194.871795,4328.205128,4396.923077,4360.512821,4469.74359,4578.974359,4000,4424.102564,4278.974359,4507.692308,4216.923077,4154.358974,4944.615385,1593,1740,71.997,15.02854061,0,0,0,0
71,0,383,4324.615385,4195.384615,4327.692308,4394.871795,4358.461538,4468.717949,4580,4003.589744,4424.102564,4280,4506.666667,4217.435897,4157.948718,4951.282051,1592,1741,72.005,15.02854061,0,0,0,0
72,0,383,4316.923077,4184.102564,4322.051282,4386.666667,4354.358974,4469.230769,4584.615385,4010.769231,4425.128205,4274.358974,4502.051282,4217.435897,4159.487179,4953.333333,1594,1740,72.012,15.02854061,0,0,0,0
73,0,526,4320.512821,4181.025641,4328.205128,4390.769231,4353.333333,4474.358974,4589.74359,4011.794872,4428.717949,4272.307692,4501.025641,4227.692308,4164.615385,4960,1593,1740,72.02,15.02854061,0,0,0,0
74,0,465,4335.897436,4191.282051,4339.487179,4398.461538,4356.410256,4477.948718,4590.769231,4012.307692,4430.25641,4282.564103,4507.692308,4238.461538,4174.871795,4971.282051,1594,1740,72.028,15.02854061,0,0,0,0
75,0,452,4352.307692,4202.051282,4346.153846,4397.435897,4358.461538,4476.923077,4586.666667,4012.307692,4429.74359,4302.051282,4518.461538,4243.589744,4188.205128,4988.205128,1594,1739,72.036,15.02854061,0,0,0,0
76,0,352,4374.358974,4208.205128,4350.769231,4402.051282,4356.410256,4466.666667,4580.512821,4007.179487,4427.692308,4314.871795,4528.205128,4251.282051,4200,5006.153846,1594,1740,72.043,15.02854061,0,0,0,0
77,0,395,4402.051282,4213.333333,4358.461538,4409.74359,4353.846154,4455.897436,4578.461538,4007.179487,4424.102564,4320,4533.333333,4258.974359,4210.25641,5021.025641,1596,1739,72.051,15.02854061,0,0,0,0
78,0,465,4424.615385,4217.948718,4369.230769,4412.820513,4352.820513,4452.307692,4582.051282,4011.794872,4421.025641,4332.307692,4539.487179,4263.589744,4218.461538,5033.846154,1595,1739,72.058,15.02854061,0,0,0,0
79,0,452,4445.641026,4227.179487,4381.538462,4414.871795,4354.871795,4450.25641,4586.153846,4010.769231,4424.102564,4349.230769,4549.230769,4272.307692,4227.179487,5047.692308,1595,1739,72.066,15.02854061,0,0,0,0
80,0,352,4464.615385,4238.974359,4386.666667,4417.948718,4354.358974,4442.051282,4583.589744,4008.717949,4425.641026,4364.102564,4563.076923,4284.102564,4239.487179,5062.051282,1594,1739,72.075,15.02854061,0,0,0,0
81,0,395,4464.615385,4238.974359,4382.051282,4415.897436,4350.769231,4441.538462,4580,4009.74359,4422.564103,4375.897436,4572.307692,4289.74359,4247.692308,5068.205128,1595,1738,72.083,15.02854061,0,0,0,0
82,0,465,4446.666667,4229.74359,4375.897436,4411.282051,4351.282051,4447.692308,4582.051282,4008.717949,4424.102564,4381.025641,4572.820513,4291.794872,4245.128205,5061.025641,1593,1738,72.091,15.02854061,0,0,0,0
83,0,452,4422.564103,4222.051282,4369.230769,4408.205128,4354.871795,4452.307692,4587.692308,4008.717949,4423.589744,4375.897436,4573.846154,4290.25641,4235.897436,5049.74359,1594,1738,72.098,15.02854061,0,0,0,0
84,0,352,4400,4215.897436,4357.435897,4405.128205,4354.358974,4454.358974,4584.102564,4007.692308,4420.512821,4361.538462,4565.128205,4283.589744,4219.487179,5030.769231,1593,1737,72.106,15.02854061,0,0,0,0
85,0,395,4382.051282,4205.641026,4345.641026,4400,4351.794872,4454.358974,4576.410256,4003.076923,4416.923077,4336.923077,4541.538462,4276.410256,4196.410256,5002.564103,1593,1738,72.114,15.02854061,0,0,0,0
86,0,465,4365.128205,4198.974359,4338.974359,4397.435897,4353.846154,4454.358974,4577.948718,4001.025641,4413.846154,4307.692308,4522.564103,4274.358974,4176.923077,4982.051282,1593,1737,72.122,15.02854061,0,0,0,0
87,0,452,4350.769231,4196.923077,4336.410256,4394.358974,4355.897436,4456.410256,4581.538462,3998.974359,4412.307692,4286.666667,4512.820513,4275.897436,4168.205128,4972.307692,1593,1738,72.129,15.02854061,0,0,0,0
88,0,352,4345.641026,4192.307692,4333.846154,4392.307692,4349.74359,4459.487179,4580.512821,3999.487179,4411.794872,4276.410256,4498.974359,4276.410256,4165.128205,4965.641026,1593,1737,72.137,15.02854061,0,0,0,0
89,0,395,4343.589744,4187.179487,4329.74359,4390.25641,4337.948718,4465.128205,4583.076923,4001.025641,4410.25641,4266.666667,4485.128205,4276.923077,4161.538462,4961.025641,1592,1738,72.145,15.02854061,0,0,0,0
90,0,465,4336.410256,4184.102564,4328.205128,4385.128205,4326.153846,4470.25641,4588.205128,4002.051282,4412.307692,4252.307692,4478.461538,4282.564103,4156.410256,4953.846154,1593,1737,72.153,15.21620178,0,0,0,0
91,0,452,4333.846154,4184.615385,4332.820513,4385.128205,4315.897436,4470.25641,4588.717949,4005.641026,4419.487179,4246.153846,4474.871795,4289.230769,4156.410256,4955.384615,1593,1737,72.16,15.21620178,0,0,0,0
92,0,352,4334.358974,4183.076923,4331.282051,4387.692308,4303.076923,4464.615385,4583.076923,4008.205128,4422.051282,4242.051282,4472.307692,4289.74359,4159.487179,4963.589744,1594,1737,72.168,15.21620178,0,0,0,0
93,0,395,4326.153846,4176.923077,4323.589744,4385.641026,4292.820513,4457.435897,4577.948718,4003.589744,4418.974359,4231.794872,4466.153846,4289.74359,4157.948718,4957.948718,1594,1736,72.176,15.21620178,0,0,0,0
94,0,465,4318.974359,4180.512821,4325.641026,4385.128205,4293.333333,4453.333333,4577.948718,4001.025641,4418.461538,4224.102564,4458.974359,4295.384615,4155.384615,4947.692308,1594,1736,72.184,15.21620178,0,0,0,0
95,0,452,4318.461538,4185.641026,4328.717949,4386.153846,4294.871795,4455.897436,4583.076923,4006.153846,4422.564103,4220.512821,4455.384615,4296.410256,4149.230769,4944.102564,1595,1736,72.192,15.21620178,0,0,0,0
96,0,352,4315.384615,4180.512821,4321.538462,4381.025641,4289.230769,4460,4587.692308,4011.282051,4425.641026,4212.820513,4451.282051,4292.820513,4145.128205,4945.641026,1595,1736,72.199,15.21620178,0,0,0,0
97,0,395,4309.230769,4173.333333,4320,4378.974359,4288.205128,4461.538462,4588.205128,4012.307692,4424.102564,4203.076923,4443.589744,4291.282051,4148.717949,4949.74359,1595,1735,72.208,15.21620178,0,0,0,0
98,0,465,4305.641026,4170.769231,4323.589744,4384.615385,4291.794872,4462.051282,4585.641026,4009.230769,4422.051282,4196.923077,4438.461538,4289.230769,4147.179487,4946.153846,1595,1734,72.215,15.21620178,0,0,0,0
99,0,452,4304.615385,4171.282051,4317.435897,4386.153846,4292.820513,4469.230769,4589.230769,4010.25641,4427.179487,4194.871795,4436.923077,4288.205128,4138.974359,4935.384615,1594,1734,72.223,15.21620178,0,0,0,0
100,0,352,4303.589744,4173.846154,4308.717949,4383.589744,4294.358974,4476.410256,4595.384615,4015.897436,4430.25641,4190.25641,4429.74359,4288.717949,4136.410256,4930.769231,1596,1734,72.23,15.21620178,0,0,0,0
101,0,395,4297.435897,4171.282051,4307.179487,4382.051282,4298.461538,4471.794872,4589.74359,4011.794872,4425.128205,4181.538462,4421.025641,4284.615385,4134.871795,4926.666667,1594,1734,72.241,15.21620178,0,0,0,0
102,0,465,4291.282051,4168.205128,4309.74359,4381.025641,4297.435897,4462.564103,4584.615385,4004.102564,4423.589744,4175.897436,4422.564103,4282.564103,4133.333333,4924.615385,1595,1734,72.247,15.21620178,0,0,0,0
103,0,452,4295.384615,4171.794872,4313.333333,4378.974359,4294.358974,4459.487179,4589.230769,4004.615385,4427.692308,4180.512821,4426.666667,4288.717949,4139.487179,4933.333333,1594,1734,72.255,15.21620178,0,0,0,0
104,0,352,4303.589744,4174.871795,4313.846154,4378.461538,4296.923077,4458.974359,4589.230769,4006.666667,4426.666667,4184.102564,4424.615385,4292.307692,4144.102564,4937.948718,1594,1735,72.263,15.21620178,0,0,0,0
105,0,395,4303.076923,4175.897436,4310.25641,4379.487179,4297.435897,4460,4586.666667,4006.666667,4423.589744,4179.487179,4419.487179,4289.230769,4142.051282,4933.846154,1594,1733,72.269,15.21620178,0,0,0,0
106,0,465,4302.051282,4180.512821,4314.871795,4381.025641,4297.435897,4466.153846,4595.384615,4010.769231,4426.153846,4180,4422.051282,4291.282051,4142.051282,4933.846154,1593,1735,72.278,15.21620178,0,0,0,0
107,0,452,4304.102564,4181.025641,4323.076923,4378.461538,4301.538462,4470.769231,4599.487179,4014.358974,4428.205128,4186.153846,4427.692308,4296.923077,4146.666667,4935.897436,1593,1734,72.286,15.21620178,0,0,0,0
108,0,352,4299.487179,4175.897436,4318.461538,4378.461538,4302.564103,4467.692308,4590.25641,4011.282051,4426.153846,4184.615385,4427.692308,4296.923077,4146.153846,4936.923077,1593,1734,72.293,15.21620178,0,0,0,0
109,0,395,4293.846154,4174.871795,4312.820513,4381.538462,4303.076923,4467.179487,4585.128205,4008.717949,4425.128205,4183.076923,4424.615385,4294.871795,4142.564103,4936.923077,1594,1735,72.301,15.21620178,0,0,0,0
110,0,465,4290.769231,4173.846154,4311.282051,4374.358974,4303.076923,4465.641026,4580.512821,4004.102564,4424.615385,4176.923077,4416.923077,4290.25641,4137.435897,4930.25641,1593,1734,72.309,15.37258625,0,0,0,0
111,0,452,4284.615385,4166.153846,4297.948718,4366.153846,4299.487179,4452.820513,4568.205128,3992.820513,4419.487179,4153.333333,4403.589744,4281.538462,4126.666667,4915.897436,1593,1735,72.316,15.37258625,0,0,0,0
112,0,352,4288.205128,4167.692308,4293.846154,4370.769231,4298.974359,4447.692308,4566.153846,3993.333333,4419.487179,4142.564103,4398.974359,4283.589744,4129.74359,4919.487179,1593,1734,72.324,15.37258625,0,0,0,0
113,0,395,4303.076923,4178.461538,4311.794872,4375.384615,4302.564103,4459.487179,4577.435897,4005.641026,4425.128205,4165.641026,4412.307692,4296.923077,4151.282051,4944.615385,1594,1734,72.333,15.37258625,0,0,0,0
114,0,465,4305.128205,4182.564103,4319.487179,4373.333333,4304.102564,4462.051282,4583.076923,4007.179487,4423.589744,4180.512821,4421.538462,4302.564103,4158.974359,4953.846154,1593,1734,72.341,15.37258625,0,0,0,0
115,0,452,4295.384615,4176.410256,4309.74359,4369.74359,4303.589744,4454.358974,4582.051282,4003.076923,4420.512821,4166.153846,4413.333333,4297.435897,4143.076923,4935.384615,1593,1736,72.349,15.37258625,0,0,0,0
116,0,352,4293.333333,4171.794872,4308.717949,4371.282051,4303.589744,4461.025641,4586.666667,4007.692308,4424.615385,4165.128205,4409.230769,4295.897436,4138.974359,4929.230769,1594,1735,72.356,15.37258625,0,0,0,0
117,0,395,4301.538462,4176.923077,4317.948718,4374.871795,4306.153846,4474.358974,4593.333333,4015.384615,4432.307692,4186.666667,4423.076923,4300.512821,4155.897436,4947.692308,1593,1737,72.364,15.37258625,0,0,0,0
118,0,465,4306.153846,4181.538462,4317.435897,4377.948718,4311.282051,4473.333333,4591.794872,4013.333333,4434.871795,4195.384615,4434.358974,4305.128205,4158.974359,4950.769231,1594,1735,72.372,15.37258625,0,0,0,0
119,0,452,4297.948718,4176.410256,4310.769231,4376.923077,4311.282051,4462.564103,4586.666667,4004.615385,4430.769231,4185.128205,4427.692308,4301.025641,4145.128205,4933.846154,1592,1736,72.379,15.37258625,0,0,0,0
120,0,352,4281.538462,4168.205128,4305.128205,4369.74359,4309.74359,4458.461538,4582.564103,3998.974359,4423.589744,4170.25641,4415.384615,4290.769231,4137.435897,4923.589744,1593,1737,72.388,15.37258625,0,0,0,0
121,0,395,4275.384615,4163.589744,4300.512821,4363.076923,4308.717949,4456.923077,4576.410256,3995.897436,4416.923077,4156.410256,4404.615385,4286.666667,4132.820513,4918.461538,1592,1736,72.396,15.37258625,0,0,0,0
122,0,465,4285.128205,4165.641026,4303.589744,4365.128205,4305.128205,4456.923077,4576.410256,3995.897436,4417.435897,4149.74359,4400.512821,4293.846154,4130.769231,4921.538462,1592,1737,72.402,15.37258625,0,0,0,0
123,0,452,4293.846154,4169.74359,4311.794872,4371.794872,4306.666667,4460.512821,4583.589744,4001.538462,4424.102564,4152.820513,4403.076923,4301.538462,4140.512821,4933.333333,1592,1736,72.411,15.37258625,0,0,0,0
124,0,352,4295.897436,4172.307692,4311.794872,4375.897436,4310.769231,4463.589744,4586.666667,4008.717949,4428.205128,4163.589744,4408.717949,4305.641026,4150.25641,4941.025641,1592,1736,72.418,15.37258625,0,0,0,0
125,0,395,4300,4174.871795,4309.230769,4374.358974,4313.333333,4466.153846,4587.179487,4012.307692,4431.282051,4175.897436,4417.435897,4308.717949,4152.820513,4943.076923,1592,1735,72.426,15.37258625,0,0,0,0
126,0,465,4306.666667,4179.487179,4314.358974,4371.282051,4315.897436,4469.74359,4590.769231,4014.871795,4435.897436,4185.128205,4428.717949,4312.820513,4153.846154,4944.615385,1592,1737,72.435,15.37258625,0,0,0,0
127,0,452,4308.205128,4178.974359,4318.461538,4372.307692,4318.974359,4472.307692,4593.333333,4015.384615,4435.897436,4193.333333,4433.846154,4314.358974,4151.794872,4946.666667,1592,1736,72.443,15.37258625,0,0,0,0
128,0,352,4299.487179,4171.282051,4315.384615,4371.794872,4317.435897,4468.717949,4591.282051,4010.769231,4432.307692,4193.333333,4430.25641,4308.717949,4146.153846,4941.538462,1591,1736,72.449,15.37258625,0,0,0,0
0,0,466,4297.435897,4168.205128,4316.410256,4367.692308,4315.384615,4466.153846,4590.25641,4011.794872,4432.820513,4186.666667,4429.230769,4306.153846,4145.128205,4940,1593,1734,72.458,15.37258625,0,0,0,0
1,0,410,4311.794872,4177.435897,4322.051282,4372.820513,4318.974359,4471.282051,4597.435897,4017.948718,4432.820513,4191.282051,4433.846154,4312.307692,4150.25641,4945.128205,1591,1734,72.466,15.52897072,0,0,0,0
2,0,497,4318.461538,4187.179487,4324.102564,4381.538462,4322.564103,4473.333333,4602.564103,4016.410256,4427.179487,4200.512821,4438.461538,4314.358974,4152.307692,4943.589744,1593,1736,72.473,15.52897072,0,0,0,0
3,0,504,4311.282051,4184.615385,4324.102564,4380.512821,4324.102564,4470.25641,4602.051282,4011.282051,4423.589744,4197.948718,4437.948718,4312.820513,4149.230769,4941.025641,1592,1736,72.481,15.52897072,0,0,0,0
4,0,502,4302.564103,4175.897436,4323.589744,4376.923077,4323.076923,4469.74359,4598.974359,4007.692308,4422.051282,4192.307692,4432.820513,4311.794872,4144.102564,4943.076923,1592,1738,72.488,15.52897072,0,0,0,0
5,0,486,4296.923077,4173.846154,4318.461538,4373.846154,4321.025641,4470.25641,4592.820513,4005.128205,4418.974359,4186.666667,4426.666667,4310.25641,4136.923077,4936.410256,1593,1737,72.497,15.52897072,0,0,0,0
6,0,456,4297.435897,4175.897436,4313.333333,4371.794872,4320.512821,4464.615385,4584.615385,4001.025641,4420.512821,4175.897436,4419.487179,4309.230769,4134.871795,4927.179487,1593,1738,72.504,15.52897072,0,0,0,0
7,0,383,4294.871795,4171.282051,4307.179487,4369.230769,4319.487179,4457.948718,4580,3998.461538,4425.641026,4170.769231,4416.923077,4307.692308,4136.923077,4930.769231,1593,1739,72.513,15.52897072,0,0,0,0
8,0,383,4288.205128,4168.205128,4303.076923,4372.307692,4318.461538,4459.487179,4581.025641,4000.512821,4429.230769,4176.410256,4418.974359,4308.205128,4140,4934.871795,1593,1741,72.52,15.52897072,0,0,0,0
9,0,527,4289.74359,4172.307692,4300.512821,4374.871795,4318.974359,4462.051282,4580,4002.051282,4429.74359,4178.974359,4421.538462,4309.74359,4144.102564,4936.923077,1594,1740,72.528,15.52897072,0,0,0,0
10,0,465,4293.846154,4170.769231,4300,4369.74359,4321.025641,4465.128205,4582.051282,4004.102564,4427.179487,4176.410256,4422.564103,4310.25641,4146.153846,4939.487179,1593,1742,72.535,15.52897072,0,0,0,0
11,0,452,4298.461538,4170.25641,4307.692308,4369.230769,4323.589744,4474.358974,4592.307692,4012.307692,4430.25641,4185.641026,4426.666667,4313.333333,4147.179487,4938.461538,1594,1741,72.543,15.52897072,0,0,0,0
12,0,352,4305.641026,4174.871795,4314.871795,4376.923077,4324.102564,4477.435897,4597.948718,4015.897436,4434.871795,4199.487179,4430.25641,4318.974359,4148.717949,4938.461538,1593,1740,72.551,15.52897072,0,0,0,0
13,0,395,4304.615385,4176.410256,4310.25641,4377.948718,4325.128205,4469.230769,4592.307692,4009.74359,4429.74359,4198.974359,4429.74359,4321.025641,4142.051282,4934.871795,1594,1741,72.559,15.52897072,0,0,0,0
14,0,465,4301.538462,4180,4310.25641,4374.358974,4328.205128,4469.230769,4592.820513,4009.74359,4428.717949,4197.435897,4428.717949,4318.974359,4136.923077,4930.769231,1593,1740,72.567,15.52897072,0,0,0,0
15,0,452,4310.25641,4184.615385,4321.538462,4380,4333.333333,4477.948718,4603.076923,4016.923077,4434.871795,4209.230769,4432.307692,4320,4142.564103,4936.410256,1593,1740,72.574,15.52897072,0,0,0,0
16,0,0,4314.358974,4185.641026,4326.666667,4384.615385,4336.923077,4476.923077,4604.615385,4016.923077,4431.794872,4216.923077,4436.410256,4323.589744,4147.692308,4946.153846,1593,1740,72.583,15.52897072,0,0,0,0
17,0,0,4312.307692,4185.641026,4325.128205,4380.512821,4333.846154,4470.769231,4597.435897,4012.307692,4429.230769,4214.871795,4438.974359,4327.179487,4146.666667,4947.179487,1593,1741,72.59,15.52897072,0,0,0,0
18,0,0,4316.410256,4186.153846,4327.179487,4380.512821,4330.25641,4473.333333,4597.435897,4011.282051,4433.333333,4220,4445.641026,4330.25641,4148.205128,4946.153846,1592,1740,72.598,15.52897072,0,0,0,0
19,0,0,4316.923077,4186.666667,4328.205128,4385.641026,4332.820513,4478.974359,4602.051282,4010.769231,4430.25641,4228.205128,4449.74359,4327.692308,4151.794872,4948.717949,1592,1740,72.606,15.52897072,0,0,0,0
20,0,0,4309.74359,4187.179487,4324.615385,4384.102564,4335.897436,4477.435897,4601.538462,4010.25641,4426.153846,4230.25641,4450.25641,4323.076923,4150.25641,4946.153846,1593,1739,72.614,15.52897072,0,0,0,0
21,0,0,4311.282051,4188.717949,4327.692308,4380,4335.897436,4480,4604.102564,4016.923077,4431.282051,4233.846154,4455.897436,4326.666667,4150.25641,4944.615385,1593,1740,72.621,15.52897072,0,0,0,0
22,0,0,4317.435897,4192.820513,4336.410256,4383.589744,4338.974359,4486.666667,4610.25641,4021.538462,4432.820513,4244.615385,4461.538462,4334.358974,4154.358974,4951.794872,1593,1739,72.629,15.52897072,0,0,0,0
23,0,0,4314.871795,4191.282051,4330.25641,4387.692308,4341.025641,4482.564103,4605.128205,4012.820513,4426.666667,4244.615385,4458.974359,4330.25641,4148.717949,4949.230769,1593,1740,72.638,15.52897072,0,0,0,0
24,0,0,4308.205128,4184.102564,4314.871795,4384.102564,4336.410256,4473.333333,4595.897436,4005.128205,4421.538462,4227.179487,4449.74359,4320.512821,4136.923077,4937.435897,1593,1739,72.646,15.52897072,0,0,0,0
25,0,0,4308.717949,4181.538462,4315.897436,4380.512821,4330.769231,4472.820513,4593.846154,4008.205128,4422.051282,4216.923077,4442.564103,4322.051282,4138.461538,4940,1593,1740,72.653,15.52897072,0,0,0,0
26,0,0,4312.820513,4181.025641,4324.615385,4378.974359,4329.230769,4471.794872,4593.846154,4010.769231,4425.128205,4220,4442.564103,4325.128205,4145.128205,4948.205128,1593,1739,72.661,15.52897072,0,0,0,0
27,0,0,4311.794872,4175.897436,4321.025641,4374.871795,4329.230769,4466.666667,4590.769231,4008.205128,4426.153846,4216.410256,4441.538462,4321.025641,4137.948718,4941.538462,1593,1739,72.668,15.52897072,0,0,0,0
28,0,0,4310.769231,4172.820513,4316.923077,4376.923077,4326.666667,4467.179487,4591.282051,4011.282051,4423.589744,4206.666667,4434.871795,4320.512821,4131.282051,4931.794872,1594,1738,72.676,15.52897072,0,0,0,0
29,0,0,4315.897436,4176.923077,4323.076923,4379.487179,4325.641026,4471.794872,4598.461538,4015.897436,4424.615385,4211.794872,4436.923077,4327.692308,4138.974359,4936.923077,1593,1739,72.684,15.52897072,0,0,0,0
30,0,0,4314.358974,4181.538462,4326.666667,4378.974359,4330.769231,4474.871795,4600.512821,4015.384615,4427.692308,4223.589744,4447.692308,4330.25641,4144.615385,4945.128205,1594,1739,72.693,15.52897072,0,0,0,0
31,0,0,4305.641026,4183.589744,4318.974359,4379.487179,4334.358974,4478.974359,4597.435897,4017.435897,4430.769231,4227.179487,4450.25641,4326.666667,4144.102564,4947.692308,1592,1738,72.701,15.52897072,0,0,0,0
32,0,0,4305.128205,4183.589744,4309.74359,4382.564103,4334.358974,4479.487179,4597.948718,4020.512821,4431.794872,4221.538462,4446.666667,4324.102564,4144.615385,4947.692308,1593,1740,72.708,15.52897072,0,0,0,0
33,0,0,4305.128205,4180,4306.666667,4378.974359,4331.282051,4474.358974,4594.871795,4015.384615,4427.692308,4214.358974,4444.615385,4322.051282,4142.051282,4941.025641,1593,1738,72.715,15.52897072,0,0,0,0
34,0,0,4298.974359,4180,4307.179487,4376.410256,4327.692308,4473.846154,4589.74359,4006.666667,4425.128205,4209.230769,4440.512821,4318.974359,4140.512821,4933.333333,1592,1740,72.723,15.52897072,0,0,0,0
35,0,0,4302.564103,4185.641026,4310.25641,4382.051282,4325.128205,4475.897436,4591.282051,4004.615385,4429.74359,4205.641026,4438.974359,4316.410256,4143.076923,4934.871795,1593,1740,72.731,15.52897072,0,0,0,0
36,0,0,4315.384615,4186.153846,4318.461538,4384.615385,4325.128205,4468.717949,4591.282051,4005.641026,4429.230769,4210.769231,4442.564103,4321.025641,4143.589744,4945.128205,1593,1739,72.739,15.52897072,0,0,0,0
37,0,0,4315.384615,4180.512821,4325.128205,4383.076923,4326.666667,4464.615385,4587.179487,4005.641026,4424.615385,4214.358974,4442.564103,4327.692308,4140,4947.692308,1593,1737,72.746,15.52897072,0,0,0,0
38,0,0,4312.307692,4184.615385,4324.615385,4384.615385,4329.74359,4471.794872,4592.307692,4005.641026,4424.102564,4211.282051,4441.538462,4326.153846,4136.923077,4941.025641,1593,1738,72.755,15.52897072,0,0,0,0
39,0,0,4322.564103,4193.846154,4324.615385,4387.692308,4334.358974,4474.358974,4597.948718,4007.179487,4423.076923,4214.871795,4445.128205,4321.025641,4138.974359,4941.538462,1594,1737,72.763,15.52897072,0,0,0,0
40,0,0,4327.179487,4192.307692,4321.538462,4382.051282,4336.410256,4469.230769,4592.820513,4006.666667,4418.974359,4218.461538,4446.153846,4320,4142.564103,4945.128205,1593,1739,72.772,15.52897072,0,0,0,0
41,0,0,4314.871795,4185.128205,4312.820513,4376.410256,4334.871795,4472.307692,4592.820513,4009.74359,4421.538462,4216.923077,4445.128205,4317.435897,4141.025641,4944.102564,1595,1738,72.78,15.52897072,0,0,0,0
42,0,0,4308.717949,4185.128205,4310.25641,4381.025641,4336.923077,4478.974359,4600,4015.384615,4427.179487,4220,4446.153846,4314.871795,4138.974359,4941.538462,1594,1738,72.786,15.52897072,0,0,0,0
43,0,0,4313.333333,4186.666667,4316.410256,4381.538462,4336.923077,4476.923077,4600.512821,4016.923077,4428.205128,4226.153846,4450.25641,4315.897436,4140,4940,1594,1739,72.794,15.52897072,0,0,0,0
44,0,0,4313.333333,4185.641026,4315.897436,4375.384615,4334.871795,4476.410256,4599.487179,4015.384615,4430.25641,4226.153846,4451.282051,4316.410256,4141.025641,4938.461538,1594,1737,72.802,15.52897072,0,0,0,0
45,0,0,4306.666667,4185.128205,4307.692308,4375.384615,4335.897436,4476.923077,4597.435897,4011.794872,4428.717949,4220.512821,4448.205128,4308.717949,4139.487179,4938.461538,1593,1740,72.81,15.52897072,0,0,0,0
46,0,0,4298.974359,4183.589744,4304.102564,4378.461538,4337.948718,4473.333333,4589.74359,4006.153846,4420.512821,4213.333333,4441.025641,4295.897436,4132.307692,4933.846154,1593,1739,72.818,15.52897072,0,0,0,0
47,0,0,4297.948718,4182.051282,4304.615385,4376.923077,4336.923077,4473.846154,4584.615385,4002.051282,4418.461538,4202.051282,4435.384615,4293.846154,4125.641026,4925.641026,1592,1740,72.826,15.52897072,0,0,0,0
48,0,0,4305.128205,4186.666667,4308.717949,4378.974359,4335.897436,4476.923077,4588.205128,4005.641026,4423.076923,4197.435897,4435.384615,4303.589744,4130.769231,4928.717949,1593,1740,72.832,15.52897072,0,0,0,0
49,0,0,4313.333333,4192.820513,4316.923077,4384.615385,4337.948718,4477.435897,4594.871795,4011.282051,4424.615385,4209.230769,4441.025641,4309.74359,4141.538462,4941.538462,1592,1740,72.841,15.52897072,0,0,0,0
50,0,0,4317.435897,4192.820513,4322.051282,4383.589744,4336.410256,4483.589744,4596.923077,4010.25641,4422.051282,4220.512821,4448.717949,4307.179487,4144.615385,4949.74359,1592,1739,72.849,15.52897072,0,0,0,0
51,0,0,4324.102564,4195.384615,4321.538462,4383.076923,4334.871795,4488.205128,4595.897436,4007.692308,4421.538462,4226.666667,4456.923077,4307.179487,4144.615385,4953.333333,1591,1739,72.857,15.52897072,0,0,0,0
52,0,0,4332.820513,4202.564103,4327.179487,4387.692308,4339.487179,4481.025641,4597.435897,4009.74359,4424.102564,4238.461538,4464.102564,4309.74359,4151.794872,4957.435897,1593,1739,72.866,15.52897072,0,0,0,0
53,0,0,4330.25641,4197.948718,4330.25641,4385.641026,4341.025641,4469.230769,4595.897436,4008.717949,4423.076923,4243.589744,4464.615385,4305.128205,4152.307692,4956.923077,1592,1738,72.874,15.52897072,0,0,0,0
54,0,0,4321.025641,4189.74359,4321.025641,4379.487179,4335.897436,4461.025641,4587.692308,4001.538462,4418.974359,4233.846154,4461.025641,4298.974359,4145.128205,4948.717949,1593,1740,72.879,15.52897072,0,0,0,0
55,0,0,4322.051282,4193.333333,4317.948718,4381.025641,4336.410256,4460.512821,4587.179487,4003.589744,4420.512821,4228.717949,4459.487179,4298.461538,4143.589744,4947.692308,1593,1738,72.888,15.52897072,0,0,0,0
56,0,0,4329.74359,4195.384615,4326.666667,4384.102564,4341.025641,4465.641026,4596.410256,4012.307692,4426.666667,4238.974359,4465.128205,4302.564103,4147.179487,4954.871795,1593,1739,72.896,15.52897072,0,0,0,0
57,0,0,4324.102564,4190.769231,4327.692308,4381.538462,4339.487179,4468.717949,4601.025641,4018.974359,4430.769231,4248.205128,4473.333333,4304.615385,4151.282051,4959.487179,1594,1737,72.906,15.52897072,0,0,0,0
58,0,0,4315.897436,4192.820513,4322.564103,4381.538462,4337.948718,4471.794872,4601.538462,4023.076923,4431.794872,4251.794872,4475.897436,4303.589744,4156.410256,4960.512821,1594,1737,72.912,15.52897072,0,0,0,0
59,0,0,4320.512821,4195.897436,4321.538462,4386.666667,4341.025641,4480.512821,4603.589744,4022.051282,4432.307692,4257.435897,4480,4300,4157.435897,4960,1595,1737,72.919,15.52897072,0,0,0,0
60,0,0,4322.564103,4193.846154,4318.461538,4387.692308,4340.512821,4489.74359,4601.538462,4018.461538,4433.846154,4264.615385,4485.128205,4293.846154,4151.282051,4955.897436,1594,1736,72.928,15.52897072,0,0,0,0
61,0,0,4311.794872,4189.74359,4312.820513,4381.538462,4339.487179,4488.205128,4595.384615,4014.871795,4433.333333,4261.538462,4484.102564,4289.74359,4144.615385,4948.717949,1595,1737,72.935,15.52897072,0,0,0,0
62,0,0,4300.512821,4187.179487,4310.769231,4379.487179,4345.641026,4485.641026,4592.307692,4011.794872,4429.230769,4249.74359,4476.410256,4288.205128,4140,4938.974359,1595,1737,72.945,15.52897072,0,0,0,0
63,0,0,4302.051282,4187.692308,4310.25641,4382.051282,4348.205128,4484.615385,4592.820513,4012.307692,4425.641026,4239.487179,4470.25641,4282.564103,4135.897436,4935.384615,1594,1737,72.953,15.52897072,0,0,0,0
64,0,466,4309.74359,4190.769231,4308.205128,4384.102564,4341.538462,4480,4591.282051,4010.769231,4423.589744,4234.358974,4466.153846,4276.410256,4133.846154,4941.025641,1593,1737,72.959,15.52897072,0,0,0,0
65,0,410,4318.461538,4191.794872,4312.307692,4386.666667,4338.974359,4475.897436,4591.794872,4009.230769,4423.076923,4235.384615,4463.589744,4278.974359,4137.435897,4946.153846,1593,1737,72.966,16.02939987,0,0,0,0
66,0,497,4322.051282,4189.74359,4322.564103,4387.692308,4341.025641,4476.923077,4594.358974,4011.794872,4425.128205,4242.051282,4466.153846,4282.051282,4142.051282,4944.615385,1593,1736,72.973,16.02939987,0,0,0,0
67,0,504,4318.974359,4191.794872,4324.102564,4385.128205,4342.564103,4479.487179,4596.923077,4017.948718,4427.692308,4241.538462,4469.74359,4280,4136.410256,4940.512821,1592,1738,72.982,16.02939987,0,0,0,0
68,0,502,4318.461538,4195.384615,4318.461538,4383.076923,4345.128205,4477.435897,4596.410256,4016.923077,4427.179487,4235.897436,4465.641026,4277.435897,4130.25641,4936.410256,1593,1737,72.992,16.02939987,0,0,0,0
69,0,486,4324.615385,4190.769231,4319.487179,4386.666667,4343.589744,4474.871795,4594.358974,4009.230769,4425.128205,4237.948718,4461.538462,4276.923077,4131.282051,4934.871795,1592,1737,72.997,16.02939987,0,0,0,0
70,0,456,4329.74359,4187.692308,4325.641026,4389.74359,4341.538462,4478.974359,4593.846154,4009.230769,4425.641026,4245.641026,4470.25641,4281.025641,4137.948718,4947.692308,1592,1738,73.006,16.02939987,0,0,0,0
71,0,383,4331.794872,4194.358974,4329.230769,4388.205128,4342.564103,4485.128205,4598.974359,4017.435897,4432.307692,4258.461538,4485.641026,4289.230769,4153.846154,4969.74359,1591,1738,73.013,16.02939987,0,0,0,0
72,0,383,4331.794872,4199.487179,4330.25641,4388.717949,4344.102564,4484.102564,4600.512821,4021.025641,4436.923077,4272.820513,4494.871795,4291.282051,4163.076923,4975.384615,1592,1739,73.021,16.02939987,0,0,0,0
73,0,528,4328.205128,4196.923077,4327.692308,4390.25641,4348.205128,4481.025641,4594.358974,4015.897436,4431.282051,4272.820513,4492.820513,4284.615385,4154.358974,4961.025641,1592,1739,73.028,16.02939987,0,0,0,0
74,0,465,4321.025641,4194.871795,4322.051282,4389.74359,4352.307692,4482.564103,4594.871795,4014.358974,4425.128205,4264.615385,4489.230769,4277.948718,4144.615385,4949.74359,1591,1740,73.036,16.02939987,0,0,0,0
75,0,452,4318.461538,4195.384615,4314.871795,4388.205128,4351.282051,4485.641026,4599.487179,4014.358974,4426.153846,4264.102564,4487.692308,4273.333333,4142.564103,4949.74359,1592,1739,73.044,16.02939987,0,0,0,0
76,0,352,4316.923077,4194.871795,4308.205128,4386.153846,4351.794872,4485.128205,4594.871795,4008.205128,4425.641026,4258.461538,4482.051282,4267.692308,4133.333333,4941.025641,1592,1740,73.052,16.02939987,0,0,0,0
77,0,395,4310.769231,4191.794872,4308.205128,4387.179487,4357.948718,4483.076923,4591.794872,4009.74359,4425.128205,4247.692308,4474.358974,4264.102564,4128.205128,4931.282051,1592,1739,73.059,16.02939987,0,0,0,0
78,0,465,4305.128205,4194.358974,4310.769231,4389.230769,4360.512821,4483.589744,4594.871795,4014.871795,4428.717949,4248.205128,4476.410256,4260.512821,4133.333333,4936.410256,1593,1739,73.068,16.02939987,0,0,0,0
79,0,452,4306.666667,4200,4308.717949,4388.205128,4356.923077,4479.487179,4588.717949,4008.205128,4428.717949,4246.666667,4476.410256,4258.974359,4129.230769,4936.923077,1592,1740,73.076,16.02939987,0,0,0,0
80,0,352,4314.871795,4200.512821,4312.820513,4388.717949,4353.846154,4475.384615,4583.589744,4003.589744,4424.615385,4240,4470.25641,4260.512821,4123.589744,4929.74359,1593,1739,73.083,16.02939987,0,0,0,0
81,0,395,4322.051282,4198.974359,4321.538462,4390.769231,4355.384615,4480,4593.846154,4011.794872,4424.102564,4243.589744,4470.25641,4262.051282,4130.769231,4933.846154,1593,1739,73.091,16.02939987,0,0,0,0
82,0,465,4326.153846,4200.512821,4322.051282,4389.74359,4357.435897,4484.615385,4600,4014.358974,4426.153846,4252.820513,4478.974359,4264.615385,4138.461538,4948.205128,1593,1739,73.098,16.02939987,0,0,0,0
83,0,452,4326.666667,4200,4317.435897,4387.179487,4356.410256,4479.487179,4591.794872,4008.205128,4427.692308,4252.307692,4484.102564,4267.179487,4141.025641,4956.923077,1593,1738,73.106,16.02939987,0,0,0,0
84,0,352,4322.051282,4194.871795,4317.948718,4387.179487,4353.333333,4476.923077,4589.230769,4011.282051,4429.74359,4251.794872,4482.051282,4268.205128,4145.128205,4958.974359,1593,1738,73.116,16.02939987,0,0,0,0
85,0,395,4328.205128,4192.820513,4329.230769,4389.230769,4353.846154,4483.076923,4602.051282,4022.564103,4435.384615,4266.153846,4488.717949,4274.358974,4153.333333,4966.666667,1594,1737,73.123,16.02939987,0,0,0,0
86,0,465,4344.102564,4197.948718,4337.948718,4391.794872,4355.384615,4480,4608.717949,4025.641026,4437.948718,4285.128205,4505.641026,4284.615385,4164.615385,4981.025641,1592,1738,73.13,16.02939987,0,0,0,0
87,0,452,4350.25641,4203.076923,4335.384615,4390.25641,4353.846154,4469.74359,4600,4020.512821,4431.282051,4290.769231,4513.846154,4288.717949,4171.282051,4988.717949,1594,1737,73.137,16.02939987,0,0,0,0
88,0,352,4357.948718,4209.230769,4340,4391.282051,4353.846154,4469.74359,4593.846154,4017.948718,4429.230769,4294.358974,4514.358974,4288.717949,4174.871795,4993.846154,1593,1736,73.146,16.02939987,0,0,0,0
89,0,395,4393.846154,4221.538462,4357.435897,4402.051282,4355.897436,4475.897436,4596.923077,4020,4432.820513,4315.384615,4528.205128,4295.897436,4191.282051,5018.461538,1593,1737,73.153,16.02939987,0,0,0,0
90,0,465,4443.589744,4240,4375.384615,4412.307692,4359.487179,4479.487179,4598.974359,4020,4430.769231,4352.307692,4553.846154,4309.74359,4220.512821,5059.487179,1593,1737,73.161,16.02939987,0,0,0,0
91,0,452,4468.205128,4250.769231,4388.205128,4415.897436,4361.538462,4480.512821,4598.974359,4015.897436,4427.692308,4386.153846,4574.358974,4317.435897,4241.538462,5085.128205,1592,1737,73.169,16.02939987,0,0,0,0
92,0,352,4469.230769,4246.153846,4392.820513,4414.358974,4361.025641,4476.410256,4597.948718,4013.333333,4425.641026,4402.564103,4589.74359,4316.410256,4242.564103,5085.128205,1593,1737,73.178,16.02939987,0,0,0,0
93,0,395,4465.128205,4240.512821,4391.282051,4412.820513,4362.051282,4474.871795,4596.410256,4014.358974,4424.615385,4410.25641,4601.025641,4314.358974,4240,5078.461538,1592,1737,73.184,16.02939987,0,0,0,0
94,0,465,4448.717949,4238.461538,4383.076923,4409.74359,4362.051282,4475.897436,4593.846154,4010.769231,4422.051282,4413.333333,4602.564103,4307.692308,4236.410256,5071.794872,1593,1736,73.192,16.02939987,0,0,0,0
95,0,452,4428.717949,4230.769231,4371.794872,4404.102564,4358.974359,4471.794872,4588.205128,4003.589744,4417.948718,4402.051282,4594.358974,4295.384615,4224.615385,5061.025641,1592,1738,73.2,16.02939987,0,0,0,0
96,0,352,4426.666667,4226.153846,4364.615385,4404.102564,4355.384615,4468.205128,4584.102564,4004.102564,4417.948718,4388.205128,4587.179487,4290.25641,4213.333333,5048.205128,1593,1737,73.208,16.02939987,0,0,0,0
97,0,395,4426.153846,4229.74359,4363.589744,4407.692308,4353.846154,4472.307692,4590.769231,4011.794872,4422.051282,4392.307692,4585.641026,4292.820513,4207.692308,5037.948718,1592,1739,73.216,16.02939987,0,0,0,0
98,0,465,4408.205128,4230.769231,4360,4403.589744,4356.923077,4475.897436,4596.410256,4015.384615,4427.692308,4395.384615,4587.692308,4290.769231,4204.102564,5031.282051,1593,1738,73.223,16.02939987,0,0,0,0
99,0,452,4388.205128,4226.666667,4353.846154,4396.410256,4363.589744,4473.333333,4593.846154,4013.333333,4430.25641,4383.589744,4586.153846,4286.153846,4195.897436,5017.948718,1591,1738,73.231,16.02939987,0,0,0,0
100,0,352,4375.897436,4223.589744,4349.74359,4398.461538,4365.128205,4471.282051,4593.846154,4013.333333,4430.769231,4373.846154,4579.487179,4287.692308,4179.487179,4997.948718,1592,1739,73.24,16.02939987,0,0,0,0
101,0,395,4364.615385,4217.435897,4346.153846,4402.564103,4362.051282,4476.410256,4596.923077,4014.871795,4427.179487,4365.641026,4570.769231,4286.666667,4167.692308,4988.205128,1591,1738,73.248,16.02939987,0,0,0,0
102,0,465,4356.923077,4207.692308,4346.153846,4395.897436,4364.102564,4482.051282,4595.384615,4013.333333,4426.153846,4354.871795,4560.512821,4281.538462,4168.205128,4990.769231,1592,1739,73.255,16.02939987,0,0,0,0
103,0,452,4352.307692,4210.25641,4352.820513,4390.25641,4367.692308,4480,4597.435897,4015.897436,4431.282051,4350.25641,4555.897436,4280.512821,4167.179487,4984.615385,1592,1737,73.263,16.02939987,0,0,0,0
104,0,352,4342.564103,4215.384615,4354.358974,4394.358974,4364.102564,4480.512821,4605.128205,4024.102564,4436.410256,4350.769231,4559.487179,4283.076923,4161.025641,4971.794872,1591,1739,73.271,16.02939987,0,0,0,0
105,0,395,4333.333333,4206.153846,4347.179487,4391.794872,4361.025641,4487.692308,4607.692308,4024.615385,4435.384615,4347.692308,4557.948718,4280,4156.410256,4966.666667,1592,1738,73.278,16.34216881,0,0,0,0
106,0,465,4331.282051,4197.435897,4341.025641,4383.076923,4365.641026,4493.846154,4605.641026,4020.512821,4434.358974,4339.487179,4549.230769,4274.358974,4154.358974,4968.717949,1591,1739,73.287,16.34216881,0,0,0,0
107,0,452,4323.589744,4195.384615,4339.487179,4381.538462,4368.717949,4490.25641,4602.051282,4017.435897,4434.358974,4327.692308,4541.538462,4270.25641,4150.769231,4962.051282,1592,1737,73.294,16.34216881,0,0,0,0
108,0,352,4316.923077,4194.358974,4338.974359,4385.641026,4365.641026,4486.153846,4599.487179,4018.461538,4432.820513,4317.435897,4537.948718,4268.205128,4145.128205,4948.717949,1591,1739,73.302,16.34216881,0,0,0,0
109,0,395,4327.692308,4200,4343.076923,4385.641026,4368.205128,4490.769231,4603.589744,4023.076923,4435.384615,4321.538462,4541.025641,4270.25641,4146.153846,4953.333333,1593,1739,73.31,16.34216881,0,0,0,0
110,0,465,4331.282051,4206.153846,4348.717949,4386.153846,4375.384615,4500,4613.846154,4029.230769,4443.076923,4336.923077,4551.282051,4274.871795,4154.358974,4969.230769,1592,1737,73.317,16.34216881,0,0,0,0
111,0,452,4322.051282,4203.076923,4348.717949,4387.692308,4380.512821,4502.051282,4619.487179,4034.871795,4446.153846,4345.128205,4553.846154,4276.923077,4160.512821,4969.74359,1592,1737,73.326,16.34216881,0,0,0,0
112,0,352,4323.589744,4200.512821,4345.641026,4385.128205,4380.512821,4498.461538,4617.948718,4034.871795,4443.589744,4342.051282,4550.769231,4271.794872,4157.948718,4960.512821,1593,1736,73.333,16.34216881,0,0,0,0
113,0,395,4332.307692,4205.641026,4348.205128,4386.153846,4381.025641,4500,4616.410256,4033.333333,4445.128205,4345.128205,4554.871795,4272.307692,4157.435897,4967.692308,1593,1738,73.341,16.34216881,0,0,0,0
114,0,465,4334.358974,4211.794872,4356.410256,4392.307692,4385.128205,4509.230769,4618.974359,4033.333333,4448.717949,4362.051282,4568.205128,4282.051282,4166.153846,4983.589744,1594,1739,73.349,16.34216881,0,0,0,0
115,0,452,4336.923077,4210.25641,4361.025641,4391.794872,4386.666667,4511.282051,4619.487179,4029.74359,4442.564103,4365.641026,4575.384615,4284.615385,4167.692308,4978.461538,1594,1741,73.356,16.34216881,0,0,0,0
116,0,352,4336.410256,4201.538462,4356.410256,4384.102564,4382.051282,4501.538462,4614.358974,4021.025641,4432.820513,4345.641026,4566.666667,4274.358974,4155.384615,4960.512821,1595,1741,73.365,16.34216881,0,0,0,0
117,0,395,4324.102564,4196.923077,4349.230769,4381.538462,4373.846154,4494.358974,4610.25641,4016.410256,4431.282051,4328.717949,4552.307692,4266.666667,4142.564103,4948.717949,1595,1742,73.372,16.34216881,0,0,0,0
118,0,465,4315.384615,4198.461538,4347.179487,4386.666667,4370.769231,4493.333333,4610.769231,4014.358974,4430.25641,4324.615385,4543.589744,4268.205128,4138.461538,4950.769231,1595,1742,73.381,16.34216881,0,0,0,0
119,0,452,4320,4195.384615,4351.282051,4388.205128,4372.307692,4490.769231,4611.794872,4014.871795,4428.717949,4321.025641,4540.512821,4266.666667,4143.589744,4961.025641,1594,1744,73.388,16.34216881,0,0,0,0
120,0,352,4327.692308,4191.794872,4352.820513,4385.128205,4371.282051,4489.74359,4614.871795,4023.589744,4436.923077,4324.615385,4545.641026,4270.769231,4156.410256,4970.25641,1594,1744,73.396,16.34216881,0,0,0,0
121,0,395,4321.538462,4191.794872,4347.179487,4378.461538,4368.205128,4491.282051,4616.410256,4026.153846,4440.512821,4330.769231,4550.25641,4276.923077,4158.974359,4967.692308,1594,1743,73.403,16.34216881,0,0,0,0
122,0,465,4307.692308,4188.205128,4342.051282,4375.897436,4366.666667,4485.128205,4609.230769,4018.974359,4433.333333,4318.974359,4541.538462,4272.820513,4146.666667,4955.384615,1594,1744,73.411,16.34216881,0,0,0,0
123,0,452,4314.358974,4188.205128,4346.153846,4380,4367.692308,4480,4605.128205,4018.974359,4431.794872,4309.74359,4533.846154,4268.205128,4144.102564,4949.74359,1594,1742,73.419,16.34216881,0,0,0,0
124,0,352,4327.692308,4192.820513,4351.282051,4380,4368.205128,4482.564103,4609.230769,4023.589744,4437.435897,4311.794872,4535.384615,4269.74359,4150.769231,4954.358974,1592,1743,73.427,16.34216881,0,0,0,0
125,0,395,4325.641026,4196.410256,4352.820513,4377.435897,4365.641026,4488.205128,4613.846154,4022.564103,4438.974359,4312.820513,4538.461538,4269.74359,4156.410256,4964.102564,1593,1743,73.435,16.49855423,0,0,0,0
126,0,465,4324.102564,4199.487179,4357.948718,4382.051282,4367.179487,4496.410256,4615.897436,4022.564103,4440.512821,4319.487179,4543.589744,4266.666667,4161.538462,4969.230769,1593,1744,73.443,16.49855423,0,0,0,0
127,0,452,4328.717949,4197.435897,4356.923077,4382.051282,4368.717949,4494.358974,4611.282051,4021.538462,4436.923077,4323.589744,4542.564103,4262.051282,4155.897436,4962.051282,1593,1743,73.451,16.49855423,0,0,0,0
128,0,352,4325.641026,4192.820513,4349.230769,4377.435897,4367.692308,4486.153846,4605.641026,4018.461538,4431.282051,4313.333333,4535.384615,4257.948718,4145.128205,4954.871795,1592,1743,73.459,16.49855423,0,0,0,0
0,0,466,4320,4195.897436,4349.230769,4379.487179,4372.307692,4494.358974,4610.769231,4022.564103,4435.384615,4307.179487,4534.871795,4258.974359,4147.692308,4954.871795,1593,1743,73.466,16.52983093,0,0,0,0
1,0,410,4316.923077,4196.410256,4352.307692,4380,4373.846154,4503.076923,4614.358974,4024.102564,4440,4309.230769,4536.410256,4260,4145.641026,4946.666667,1592,1743,73.474,16.52983093,0,0,0,0
2,0,497,4316.410256,4193.846154,4353.846154,4378.461538,4368.205128,4499.487179,4612.820513,4021.025641,4439.487179,4306.153846,4534.358974,4257.948718,4137.435897,4938.974359,1593,1743,73.482,16.52983093,0,0,0,0
3,0,504,4317.435897,4194.871795,4355.384615,4381.025641,4367.692308,4501.025641,4612.820513,4021.538462,4440.512821,4303.589744,4534.358974,4256.410256,4139.487179,4949.230769,1592,1742,73.49,16.52983093,0,0,0,0
4,0,502,4313.333333,4189.230769,4351.794872,4378.461538,4368.205128,4496.410256,4607.179487,4017.948718,4436.410256,4301.025641,4529.74359,4248.205128,4138.461538,4949.74359,1593,1742,73.497,16.52983093,0,0,0,0
5,0,486,4309.74359,4183.589744,4346.153846,4372.820513,4358.461538,4481.025641,4596.410256,4012.820513,4431.282051,4288.717949,4519.487179,4244.615385,4134.871795,4935.897436,1593,1742,73.506,16.52983093,0,0,0,0
6,0,456,4313.846154,4189.230769,4345.641026,4371.282051,4352.307692,4479.487179,4596.410256,4014.871795,4436.923077,4278.974359,4514.871795,4249.230769,4144.102564,4940,1593,1741,73.513,16.52983093,0,0,0,0
7,0,383,4316.410256,4192.820513,4342.564103,4370.25641,4358.974359,4489.74359,4601.538462,4019.487179,4442.051282,4281.025641,4518.461538,4250.769231,4149.74359,4953.846154,1593,1741,73.522,16.52983093,0,0,0,0
8,0,383,4311.794872,4191.282051,4338.974359,4367.692308,4363.076923,4488.717949,4601.538462,4017.435897,4439.487179,4281.538462,4515.384615,4247.692308,4144.615385,4953.333333,1593,1741,73.528,16.52983093,0,0,0,0
9,0,529,4312.307692,4195.384615,4341.538462,4370.769231,4358.974359,4482.564103,4598.461538,4014.871795,4436.410256,4273.846154,4507.179487,4247.692308,4143.076923,4945.641026,1592,1741,73.536,16.52983093,0,0,0,0
10,0,465,4316.410256,4197.948718,4341.025641,4372.307692,4355.384615,4482.564103,4598.461538,4016.410256,4435.384615,4269.230769,4507.179487,4246.666667,4138.974359,4934.871795,1593,1741,73.544,16.52983093,0,0,0,0
11,0,452,4313.333333,4191.282051,4335.384615,4371.794872,4354.871795,4488.205128,4602.051282,4014.358974,4432.307692,4264.615385,4506.153846,4236.923077,4127.179487,4922.051282,1592,1740,73.553,16.52983093,0,0,0,0
12,0,352,4303.076923,4184.102564,4330.25641,4369.230769,4354.871795,4493.333333,4601.025641,4010.25641,4426.666667,4248.205128,4492.307692,4229.74359,4120,4918.974359,1593,1741,73.56,16.52983093,0,0,0,0
13,0,395,4294.358974,4183.076923,4325.641026,4365.641026,4355.897436,4491.794872,4595.897436,4006.153846,4422.564103,4229.74359,4477.948718,4229.230769,4118.461538,4921.538462,1593,1739,73.568,16.52983093,0,0,0,0
14,0,465,4295.384615,4185.641026,4327.179487,4364.102564,4356.923077,4487.179487,4592.307692,4004.102564,4424.102564,4222.564103,4472.820513,4228.205128,4116.923077,4921.025641,1592,1741,73.575,16.52983093,0,0,0,0
15,0,452,4298.974359,4182.564103,4333.846154,4361.538462,4354.871795,4481.025641,4590.25641,4001.538462,4424.615385,4217.435897,4468.205128,4227.692308,4117.435897,4917.435897,1593,1740,73.583,16.52983093,0,0,0,0
16,0,0,4304.102564,4177.435897,4337.948718,4360.512821,4353.333333,4476.410256,4589.74359,4002.564103,4421.025641,4210.25641,4461.538462,4231.282051,4118.461538,4914.871795,1592,1740,73.591,16.52983093,0,0,0,0
17,0,0,4317.948718,4182.051282,4347.179487,4365.641026,4355.384615,4481.538462,4595.897436,4008.717949,4427.692308,4220.512821,4466.666667,4238.974359,4123.589744,4923.076923,1593,1741,73.599,16.52983093,0,0,0,0
18,0,0,4323.589744,4186.666667,4356.923077,4370.25641,4354.871795,4489.74359,4602.051282,4012.307692,4435.897436,4240,4484.102564,4246.153846,4134.871795,4938.461538,1593,1740,73.607,16.52983093,0,0,0,0
19,0,0,4317.435897,4184.102564,4355.384615,4367.692308,4350.769231,4485.641026,4602.051282,4013.333333,4431.282051,4244.615385,4491.794872,4250.25641,4141.025641,4944.102564,1593,1739,73.614,16.52983093,0,0,0,0
20,0,0,4321.025641,4189.74359,4352.820513,4365.128205,4350.25641,4486.153846,4601.538462,4017.435897,4430.769231,4248.205128,4491.794872,4250.25641,4141.538462,4944.102564,1592,1738,73.623,16.52983093,0,0,0,0
21,0,0,4326.666667,4193.846154,4354.871795,4363.076923,4351.282051,4496.923077,4606.666667,4018.461538,4435.384615,4257.435897,4496.923077,4247.692308,4143.076923,4946.153846,1594,1738,73.63,16.52983093,0,0,0,0
22,0,0,4313.333333,4183.076923,4344.102564,4358.461538,4350.769231,4497.435897,4607.179487,4010.25641,4429.74359,4252.820513,4496.410256,4244.102564,4140.512821,4941.538462,1593,1737,73.638,16.52983093,0,0,0,0
23,0,0,4306.666667,4180,4330.769231,4357.435897,4352.820513,4491.282051,4602.564103,4005.128205,4425.128205,4242.051282,4490.25641,4240.512821,4137.948718,4937.948718,1594,1740,73.647,16.52983093,0,0,0,0
24,0,0,4309.74359,4185.128205,4330.769231,4354.871795,4351.282051,4483.589744,4595.384615,4005.128205,4426.153846,4237.435897,4486.153846,4235.384615,4135.897436,4933.333333,1594,1738,73.654,16.52983093,0,0,0,0
25,0,0,4302.564103,4185.128205,4335.384615,4353.333333,4347.179487,4476.923077,4594.871795,4007.179487,4426.153846,4232.820513,4478.974359,4232.820513,4132.307692,4926.153846,1593,1738,73.661,16.52983093,0,0,0,0
26,0,0,4303.076923,4189.230769,4338.974359,4362.564103,4351.794872,4484.102564,4605.128205,4015.897436,4433.846154,4235.897436,4480,4235.384615,4135.897436,4932.820513,1594,1737,73.669,16.52983093,0,0,0,0
27,0,0,4312.307692,4189.74359,4340.512821,4361.538462,4354.358974,4491.794872,4609.74359,4024.102564,4442.564103,4246.666667,4491.794872,4239.487179,4143.076923,4941.025641,1592,1738,73.678,16.52983093,0,0,0,0
28,0,0,4315.384615,4187.179487,4342.051282,4352.820513,4351.794872,4488.205128,4606.153846,4025.641026,4443.589744,4251.282051,4497.435897,4242.564103,4143.076923,4942.051282,1593,1739,73.685,16.52983093,0,0,0,0
29,0,0,4321.538462,4189.230769,4347.179487,4361.025641,4352.820513,4492.820513,4609.74359,4026.153846,4442.564103,4259.487179,4502.051282,4246.153846,4143.589744,4943.076923,1591,1739,73.693,16.52983093,0,0,0,0
30,0,0,4324.102564,4186.666667,4347.692308,4366.666667,4354.871795,4499.487179,4611.282051,4025.128205,4441.025641,4268.717949,4507.179487,4248.205128,4144.102564,4943.589744,1591,1740,73.7,16.52983093,0,0,0,0
31,0,0,4312.820513,4179.487179,4344.615385,4352.307692,4352.307692,4490.769231,4596.923077,4016.923077,4434.358974,4257.948718,4499.487179,4246.666667,4139.487179,4942.051282,1591,1739,73.709,16.52983093,0,0,0,0
32,0,0,4309.230769,4176.923077,4347.179487,4346.153846,4349.230769,4485.641026,4591.794872,4013.846154,4430.769231,4245.128205,4491.794872,4245.128205,4140,4945.641026,1591,1740,73.717,16.52983093,0,0,0,0
33,0,0,4321.025641,4177.435897,4348.205128,4353.846154,4351.794872,4489.230769,4600,4015.384615,4429.74359,4248.205128,4494.871795,4246.666667,4143.076923,4946.153846,1590,1738,73.724,16.52983093,0,0,0,0
34,0,0,4322.564103,4175.384615,4341.538462,4353.846154,4353.333333,4487.692308,4596.410256,4012.820513,4425.128205,4245.641026,4491.794872,4248.205128,4137.948718,4937.435897,1591,1740,73.732,16.52983093,0,0,0,0
35,0,0,4316.923077,4178.974359,4343.076923,4353.333333,4351.282051,4485.128205,4592.307692,4013.846154,4424.615385,4236.410256,4484.615385,4247.692308,4133.333333,4936.923077,1592,1737,73.741,16.52983093,0,0,0,0
36,0,0,4315.897436,4185.128205,4351.794872,4360,4348.205128,4484.615385,4598.974359,4017.435897,4432.820513,4238.461538,4484.102564,4245.641026,4134.871795,4940,1592,1739,73.748,16.52983093,0,0,0,0
37,0,0,4311.794872,4187.692308,4348.205128,4361.538462,4348.205128,4485.128205,4603.076923,4017.948718,4437.948718,4248.717949,4487.692308,4245.128205,4135.897436,4933.846154,1593,1738,73.755,16.52983093,0,0,0,0
38,0,0,4309.230769,4187.692308,4340.512821,4354.871795,4351.282051,4490.25641,4603.589744,4021.538462,4438.461538,4252.820513,4490.769231,4245.128205,4134.358974,4929.230769,1592,1738,73.763,16.52983093,0,0,0,0
39,0,0,4308.717949,4185.128205,4334.871795,4350.25641,4352.820513,4490.25641,4604.102564,4022.564103,4438.461538,4242.564103,4486.153846,4240,4130.25641,4928.717949,1594,1738,73.771,16.52983093,0,0,0,0
40,0,0,4299.487179,4179.487179,4325.641026,4347.692308,4351.794872,4483.076923,4596.410256,4013.846154,4435.384615,4226.666667,4472.820513,4230.25641,4124.615385,4922.051282,1593,1737,73.779,16.52983093,0,0,0,0
41,0,0,4290.769231,4171.794872,4320,4341.025641,4352.307692,4484.615385,4590.769231,4008.717949,4431.282051,4215.897436,4462.564103,4227.692308,4121.538462,4912.307692,1594,1737,73.786,16.52983093,0,0,0,0
42,0,0,4291.794872,4171.794872,4321.025641,4340.512821,4353.846154,4490.25641,4590.769231,4009.230769,4429.230769,4208.717949,4461.538462,4231.282051,4118.974359,4914.871795,1594,1736,73.794,16.52983093,0,0,0,0
43,0,0,4294.871795,4178.461538,4324.102564,4349.74359,4352.820513,4485.641026,4588.717949,4006.153846,4425.641026,4204.615385,4462.564103,4235.384615,4118.974359,4920,1594,1737,73.803,16.52983093,0,0,0,0
44,0,0,4301.538462,4183.589744,4330.769231,4352.820513,4351.282051,4479.487179,4586.153846,4004.615385,4423.076923,4204.102564,4459.487179,4238.461538,4122.564103,4918.461538,1594,1737,73.811,16.52983093,0,0,0,0
45,0,0,4315.897436,4184.102564,4338.461538,4351.794872,4349.74359,4478.461538,4585.128205,4005.641026,4423.589744,4206.666667,4460.512821,4243.589744,4126.666667,4925.641026,1594,1738,73.818,16.52983093,0,0,0,0
46,0,0,4328.205128,4186.153846,4343.589744,4355.384615,4351.282051,4480,4588.205128,4006.153846,4428.205128,4216.923077,4469.230769,4253.333333,4136.410256,4944.615385,1594,1737,73.826,16.52983093,0,0,0,0
47,0,0,4327.692308,4189.74359,4347.179487,4355.384615,4353.333333,4482.051282,4591.794872,4008.717949,4434.358974,4231.794872,4480,4262.051282,4146.153846,4956.923077,1593,1738,73.833,16.52983093,0,0,0,0
48,0,0,4325.641026,4191.794872,4348.717949,4350.25641,4351.282051,4479.487179,4590.769231,4015.384615,4436.410256,4239.487179,4484.102564,4262.564103,4145.641026,4950.25641,1593,1737,73.841,16.52983093,0,0,0,0
49,0,0,4325.641026,4188.717949,4349.230769,4349.74359,4347.692308,4473.333333,4586.666667,4018.461538,4432.820513,4236.410256,4481.025641,4258.974359,4138.974359,4937.435897,1591,1737,73.849,16.52983093,0,0,0,0
50,0,0,4316.410256,4180,4342.564103,4350.769231,4345.641026,4469.74359,4582.051282,4012.820513,4427.692308,4225.128205,4474.871795,4255.384615,4131.794872,4932.820513,1592,1738,73.857,16.52983093,0,0,0,0
51,0,0,4304.615385,4175.384615,4329.74359,4346.666667,4348.205128,4472.307692,4578.974359,4009.230769,4425.641026,4215.897436,4468.717949,4252.307692,4127.692308,4935.897436,1592,1737,73.866,16.52983093,0,0,0,0
52,0,0,4298.974359,4177.948718,4325.641026,4343.076923,4352.307692,4475.897436,4576.923077,4012.307692,4428.205128,4215.384615,4465.641026,4251.282051,4130.25641,4931.794872,1591,1738,73.873,16.52983093,0,0,0,0
53,0,0,4295.897436,4177.948718,4325.128205,4344.615385,4354.358974,4475.897436,4574.358974,4013.846154,4428.717949,4211.794872,4463.589744,4250.25641,4130.769231,4918.974359,1592,1738,73.881,16.52983093,0,0,0,0
54,0,0,4292.307692,4175.897436,4323.589744,4347.692308,4351.794872,4473.846154,4567.692308,4010.25641,4427.179487,4203.589744,4459.487179,4249.74359,4123.589744,4916.410256,1591,1738,73.888,16.52983093,0,0,0,0
55,0,0,4295.384615,4177.435897,4327.692308,4345.128205,4348.717949,4474.871795,4563.076923,4007.179487,4426.666667,4201.538462,4456.923077,4256.410256,4122.051282,4923.589744,1591,1738,73.896,16.52983093,0,0,0,0
56,0,0,4301.538462,4176.923077,4334.358974,4342.564103,4350.25641,4476.923077,4555.384615,4005.641026,4424.615385,4197.435897,4453.846154,4257.948718,4125.641026,4925.128205,1590,1738,73.904,16.52983093,0,0,0,0
57,0,0,4299.487179,4174.358974,4330.769231,4346.153846,4353.846154,4471.794872,4538.974359,4002.051282,4420,4183.589744,4444.102564,4253.333333,4121.538462,4922.564103,1591,1738,73.912,16.52983093,0,0,0,0
58,0,0,4299.487179,4179.487179,4329.230769,4349.230769,4355.897436,4469.74359,4530.769231,4000.512821,4420.512821,4179.487179,4437.435897,4256.923077,4123.076923,4928.205128,1591,1739,73.919,16.52983093,0,0,0,0
59,0,0,4308.717949,4185.641026,4334.358974,4350.25641,4356.923077,4474.871795,4531.282051,4003.076923,4425.641026,4185.641026,4441.538462,4263.589744,4130.769231,4932.307692,1591,1738,73.927,16.52983093,0,0,0,0
60,0,0,4314.358974,4183.076923,4336.923077,4346.666667,4358.461538,4473.846154,4526.153846,4004.615385,4425.641026,4187.179487,4441.538462,4264.615385,4130.25641,4930.25641,1591,1739,73.935,16.52983093,0,0,0,0
61,0,0,4315.384615,4183.589744,4338.974359,4341.538462,4358.461538,4472.307692,4524.102564,4004.615385,4423.589744,4184.615385,4440,4268.205128,4129.230769,4933.846154,1592,1738,73.943,16.52983093,0,0,0,0
62,0,0,4322.051282,4190.25641,4344.102564,4343.589744,4356.923077,4480,4529.230769,4006.666667,4426.153846,4188.205128,4442.564103,4272.307692,4133.846154,4938.974359,1592,1739,73.951,16.52983093,0,0,0,0
63,0,0,4326.153846,4190.25641,4345.128205,4351.794872,4357.948718,4484.615385,4526.666667,4011.282051,4427.179487,4194.871795,4444.102564,4273.846154,4133.846154,4941.538462,1592,1739,73.959,16.52983093,0,0,0,0
64,0,466,4318.461538,4187.179487,4344.102564,4349.74359,4359.487179,4483.076923,4522.564103,4013.846154,4427.179487,4195.897436,4444.102564,4275.384615,4134.871795,4945.641026,1592,1741,73.966,17.03026009,0,0,0,0
65,0,410,4311.282051,4187.692308,4344.615385,4341.025641,4357.948718,4485.128205,4530.769231,4017.948718,4429.74359,4195.384615,4448.205128,4278.974359,4137.435897,4944.615385,1593,1739,73.974,17.03026009,0,0,0,0
66,0,497,4312.820513,4185.128205,4343.589744,4343.076923,4358.461538,4486.153846,4535.384615,4020.512821,4432.307692,4197.948718,4449.74359,4283.076923,4134.358974,4938.461538,1592,1740,73.982,17.03026009,0,0,0,0
67,0,504,4314.358974,4181.538462,4341.538462,4348.205128,4358.461538,4481.538462,4529.230769,4016.923077,4427.692308,4196.923077,4443.589744,4282.564103,4130.25641,4935.384615,1593,1739,73.99,17.03026009,0,0,0,0
68,0,502,4314.358974,4182.564103,4342.051282,4345.641026,4355.897436,4479.487179,4526.153846,4011.794872,4422.051282,4193.333333,4444.615385,4280.512821,4130.25641,4936.410256,1592,1739,73.999,17.03026009,0,0,0,0
69,0,486,4313.846154,4183.076923,4339.487179,4339.487179,4354.358974,4480,4526.153846,4010.25641,4422.051282,4189.230769,4444.102564,4282.051282,4127.179487,4934.358974,1593,1740,74.005,17.03026009,0,0,0,0
70,0,456,4310.25641,4177.435897,4335.897436,4338.461538,4354.358974,4475.897436,4520.512821,4008.717949,4421.025641,4176.923077,4430.25641,4278.461538,4122.564103,4925.641026,1593,1739,74.013,17.03026009,0,0,0,0
71,0,383,4308.717949,4178.974359,4339.487179,4342.564103,4357.435897,4473.846154,4515.897436,4008.205128,4421.025641,4171.794872,4424.615385,4275.897436,4124.615385,4924.615385,1593,1740,74.021,17.03026009,0,0,0,0
72,0,383,4311.282051,4189.230769,4343.076923,4343.589744,4361.025641,4476.410256,4514.871795,4007.179487,4424.615385,4181.025641,4431.794872,4282.564103,4128.205128,4934.358974,1593,1739,74.029,17.03026009,0,0,0,0
73,0,530,4308.205128,4188.205128,4334.871795,4337.435897,4357.948718,4470.769231,4506.666667,4000.512821,4424.102564,4175.384615,4426.666667,4288.717949,4125.641026,4933.333333,1593,1739,74.038,17.03026009,0,0,0,0
74,0,465,4305.641026,4182.051282,4330.769231,4336.410256,4354.871795,4465.128205,4500,3999.487179,4422.051282,4161.538462,4420,4287.692308,4126.666667,4930.769231,1593,1739,74.046,17.03026009,0,0,0,0
75,0,452,4308.717949,4183.589744,4338.974359,4338.974359,4359.487179,4469.74359,4505.641026,4004.615385,4422.051282,4166.153846,4424.615385,4291.282051,4131.794872,4940,1593,1740,74.053,17.03026009,0,0,0,0
76,0,352,4309.230769,4180.512821,4342.564103,4335.897436,4363.589744,4473.846154,4508.717949,4002.051282,4418.974359,4173.333333,4425.641026,4300,4132.307692,4943.589744,1593,1739,74.061,17.03026009,0,0,0,0
77,0,395,4312.820513,4175.897436,4338.461538,4334.871795,4363.076923,4475.384615,4504.615385,4001.538462,4419.487179,4169.230769,4424.102564,4303.589744,4133.846154,4942.051282,1592,1739,74.068,17.03026009,0,0,0,0
78,0,465,4316.410256,4178.461538,4340,4336.410256,4361.025641,4479.487179,4504.615385,4007.179487,4426.153846,4172.820513,4429.230769,4304.615385,4140,4947.692308,1594,1739,74.076,17.03026009,0,0,0,0
79,0,452,4307.179487,4176.923077,4339.487179,4328.717949,4361.025641,4478.974359,4505.128205,4008.205128,4427.692308,4177.948718,4431.794872,4305.641026,4142.051282,4952.820513,1592,1739,74.084,17.03026009,0,0,0,0
80,0,352,4301.538462,4171.282051,4329.230769,4325.641026,4360,4473.846154,4497.948718,4003.589744,4423.076923,4170.769231,4426.666667,4306.153846,4133.846154,4946.153846,1593,1740,74.091,17.03026009,0,0,0,0
81,0,395,4309.74359,4176.923077,4327.179487,4337.435897,4357.435897,4474.358974,4495.384615,4002.051282,4420,4165.128205,4421.025641,4307.692308,4128.717949,4939.487179,1593,1739,74.1,17.03026009,0,0,0,0
82,0,465,4320.512821,4187.179487,4340.512821,4338.974359,4356.410256,4478.461538,4502.051282,4003.589744,4424.102564,4168.205128,4422.051282,4313.333333,4137.948718,4945.641026,1592,1740,74.107,17.03026009,0,0,0,0
83,0,452,4323.076923,4187.179487,4347.179487,4329.74359,4358.461538,4475.384615,4501.538462,4004.615385,4423.589744,4173.333333,4424.615385,4321.538462,4146.666667,4954.358974,1593,1738,74.116,17.03026009,0,0,0,0
84,0,352,4321.538462,4183.589744,4343.076923,4330.25641,4358.974359,4467.692308,4493.333333,4001.025641,4415.897436,4167.692308,4420.512821,4323.076923,4141.025641,4953.846154,1592,1738,74.123,17.03026009,0,0,0,0
85,0,395,4321.025641,4184.615385,4342.564103,4334.358974,4356.410256,4467.179487,4490.769231,3996.923077,4414.358974,4154.871795,4411.282051,4322.051282,4133.846154,4947.692308,1592,1737,74.131,17.03026009,0,0,0,0
86,0,465,4321.025641,4185.641026,4343.076923,4331.794872,4357.948718,4473.846154,4494.358974,4000,4417.948718,4152.307692,4406.666667,4322.564103,4131.282051,4941.025641,1591,1737,74.138,17.03026009,0,0,0,0
87,0,452,4314.358974,4180,4335.897436,4328.717949,4361.538462,4473.846154,4494.358974,4002.564103,4415.384615,4149.230769,4402.051282,4318.974359,4123.589744,4931.794872,1591,1736,74.146,17.03026009,0,0,0,0
88,0,352,4307.692308,4174.871795,4333.846154,4327.692308,4360.512821,4469.74359,4493.846154,4001.538462,4413.846154,4138.974359,4395.897436,4318.461538,4118.974359,4929.74359,1591,1737,74.154,17.03026009,0,0,0,0
89,0,395,4316.410256,4180.512821,4342.564103,4329.74359,4364.102564,4474.871795,4501.025641,4006.153846,4423.076923,4150.769231,4404.102564,4328.205128,4130.769231,4942.564103,1592,1737,74.162,17.03026009,0,0,0,0
90,0,465,4328.205128,4188.717949,4345.128205,4329.230769,4369.74359,4484.102564,4505.641026,4011.282051,4428.717949,4173.846154,4416.410256,4335.897436,4140.512821,4947.692308,1590,1737,74.17,17.03026009,0,0,0,0
91,0,452,4323.076923,4186.153846,4339.487179,4324.615385,4367.179487,4484.102564,4502.564103,4009.230769,4425.641026,4173.333333,4417.948718,4336.923077,4134.871795,4939.487179,1592,1737,74.177,17.03026009,0,0,0,0
92,0,352,4319.487179,4183.076923,4340,4328.717949,4362.564103,4482.564103,4501.538462,4009.230769,4424.615385,4165.128205,4417.435897,4340,4135.897436,4944.615385,1591,1735,74.186,17.03026009,0,0,0,0
93,0,395,4323.589744,4187.692308,4344.615385,4331.282051,4360.512821,4485.641026,4502.564103,4011.794872,4425.641026,4173.333333,4422.051282,4344.615385,4146.153846,4958.461538,1591,1737,74.193,17.03026009,0,0,0,0
94,0,465,4323.076923,4188.717949,4345.128205,4324.102564,4362.051282,4486.153846,4502.564103,4009.230769,4426.153846,4180.512821,4426.666667,4350.25641,4147.179487,4959.487179,1592,1733,74.201,17.03026009,0,0,0,0
95,0,452,4318.461538,4182.564103,4343.589744,4321.538462,4363.076923,4478.461538,4503.076923,4008.717949,4425.641026,4174.871795,4424.102564,4357.435897,4145.128205,4954.358974,1592,1734,74.209,17.03026009,0,0,0,0
96,0,352,4322.564103,4181.025641,4344.102564,4325.128205,4358.461538,4468.205128,4501.025641,4005.128205,4420,4167.692308,4415.897436,4360,4140.512821,4950.769231,1593,1734,74.217,17.03026009,0,0,0,0
97,0,395,4331.794872,4189.230769,4348.717949,4326.153846,4356.923077,4466.153846,4501.538462,4004.102564,4417.435897,4167.179487,4414.358974,4364.102564,4137.948718,4952.820513,1592,1737,74.224,17.03026009,0,0,0,0
98,0,465,4332.307692,4194.358974,4351.794872,4324.615385,4365.128205,4471.794872,4507.179487,4010.769231,4423.076923,4174.358974,4422.051282,4370.769231,4145.641026,4962.564103,1593,1738,74.233,17.03026009,0,0,0,0
99,0,452,4330.25641,4191.282051,4351.794872,4324.102564,4369.74359,4477.948718,4508.205128,4014.871795,4426.666667,4182.051282,4426.666667,4369.74359,4150.769231,4964.102564,1593,1739,74.241,17.03026009,0,0,0,0
100,0,352,4330.25641,4191.282051,4353.846154,4329.74359,4367.692308,4481.025641,4506.666667,4012.307692,4427.179487,4186.666667,4428.717949,4366.153846,4146.153846,4956.923077,1593,1738,74.248,17.03026009,0,0,0,0
101,0,395,4326.153846,4192.307692,4353.846154,4335.384615,4368.205128,4485.641026,4510.769231,4014.358974,4430.769231,4189.230769,4429.74359,4368.205128,4139.487179,4952.307692,1593,1739,74.256,17.03026009,0,0,0,0
102,0,465,4316.923077,4183.076923,4346.666667,4329.74359,4369.230769,4491.282051,4513.846154,4020.512821,4432.820513,4183.589744,4427.179487,4369.230769,4136.410256,4946.666667,1594,1742,74.263,17.03026009,0,0,0,0
103,0,452,4310.25641,4172.820513,4341.025641,4318.461538,4369.74359,4490.25641,4511.794872,4021.025641,4435.384615,4175.897436,4423.589744,4368.205128,4133.333333,4942.564103,1593,1742,74.271,17.03026009,0,0,0,0
104,0,352,4311.282051,4175.897436,4342.564103,4315.897436,4371.282051,4490.25641,4511.282051,4021.025641,4437.948718,4176.923077,4424.102564,4369.74359,4131.282051,4941.538462,1592,1743,74.279,17.03026009,0,0,0,0
105,0,395,4314.871795,4180.512821,4342.564103,4319.487179,4372.820513,4496.923077,4513.846154,4019.487179,4433.846154,4177.435897,4424.615385,4373.333333,4131.282051,4942.051282,1594,1742,74.287,17.03026009,0,0,0,0
106,0,465,4314.871795,4178.974359,4340,4322.564103,4370.25641,4493.333333,4511.282051,4015.384615,4425.641026,4170.25641,4419.487179,4374.871795,4132.820513,4944.102564,1592,1742,74.295,17.03026009,0,0,0,0
107,0,452,4308.717949,4178.461538,4337.435897,4320,4366.666667,4478.974359,4503.076923,4012.820513,4425.641026,4166.666667,4415.384615,4377.435897,4132.820513,4942.051282,1594,1742,74.304,17.03026009,0,0,0,0
108,0,352,4308.717949,4178.461538,4338.974359,4315.384615,4366.153846,4478.461538,4501.025641,4016.410256,4430.25641,4168.717949,4416.410256,4380.512821,4132.307692,4942.051282,1593,1741,74.311,17.03026009,0,0,0,0
109,0,395,4312.307692,4174.871795,4338.974359,4314.358974,4367.179487,4485.641026,4502.564103,4015.897436,4428.717949,4164.102564,4413.846154,4378.974359,4135.384615,4947.179487,1593,1742,74.318,17.03026009,0,0,0,0
110,0,465,4304.615385,4169.230769,4329.74359,4308.205128,4365.641026,4480,4496.410256,4006.666667,4422.564103,4147.692308,4400.512821,4372.820513,4131.282051,4940.512821,1593,1742,74.327,17.03026009,0,0,0,0
111,0,452,4296.410256,4169.230769,4324.102564,4303.076923,4366.666667,4478.461538,4496.923077,4005.128205,4422.051282,4134.358974,4387.692308,4372.820513,4123.589744,4929.230769,1593,1742,74.334,17.03026009,0,0,0,0
112,0,352,4304.102564,4177.948718,4331.282051,4314.871795,4373.846154,4493.846154,4511.282051,4019.487179,4435.897436,4143.589744,4390.25641,4382.051282,4126.153846,4934.871795,1593,1741,74.343,17.03026009,0,0,0,0
113,0,395,4306.666667,4181.538462,4333.333333,4323.076923,4375.897436,4501.025641,4520,4028.717949,4446.666667,4157.948718,4398.461538,4384.102564,4130.769231,4937.948718,1594,1740,74.349,17.03026009,0,0,0,0
114,0,465,4289.230769,4171.794872,4320.512821,4310.769231,4369.74359,4491.282051,4514.358974,4023.076923,4436.923077,4149.230769,4397.948718,4376.923077,4124.615385,4928.205128,1593,1740,74.357,17.03026009,0,0,0,0
115,0,452,4280.512821,4165.641026,4319.487179,4305.128205,4367.692308,4488.717949,4508.717949,4018.974359,4428.205128,4135.384615,4388.717949,4375.897436,4117.948718,4927.692308,1594,1740,74.365,17.03026009,0,0,0,0
116,0,352,4295.897436,4169.230769,4336.923077,4318.974359,4368.717949,4495.897436,4512.307692,4018.461538,4433.333333,4140,4389.230769,4385.641026,4124.615385,4933.846154,1593,1740,74.374,17.03026009,0,0,0,0
117,0,395,4310.25641,4175.897436,4350.25641,4323.589744,4370.25641,4500.512821,4519.487179,4018.461538,4438.974359,4155.384615,4400.512821,4395.897436,4136.410256,4938.974359,1595,1740,74.382,17.03026009,0,0,0,0
118,0,465,4308.717949,4177.948718,4346.666667,4315.384615,4371.282051,4497.435897,4520.512821,4018.974359,4434.358974,4160.512821,4403.589744,4394.358974,4136.923077,4941.025641,1593,1740,74.389,17.03026009,0,0,0,0
119,0,452,4308.717949,4173.846154,4338.461538,4312.820513,4368.717949,4491.282051,4512.820513,4017.435897,4430.25641,4153.333333,4397.435897,4391.794872,4124.615385,4933.846154,1595,1740,74.397,17.03026009,0,0,0,0
120,0,352,4318.461538,4173.846154,4343.076923,4316.923077,4368.205128,4489.230769,4510.25641,4017.435897,4430.25641,4149.74359,4395.897436,4398.974359,4122.051282,4928.205128,1593,1741,74.406,17.03026009,0,0,0,0
121,0,395,4312.820513,4174.871795,4346.153846,4313.333333,4370.25641,4488.717949,4509.230769,4014.358974,4426.666667,4146.153846,4393.846154,4401.025641,4123.589744,4928.717949,1593,1742,74.413,17.03026009,0,0,0,0
122,0,465,4296.410256,4173.333333,4337.435897,4306.153846,4368.717949,4487.692308,4503.589744,4007.179487,4425.128205,4138.974359,4389.230769,4396.410256,4120,4928.205128,1594,1740,74.421,17.03026009,0,0,0,0
123,0,452,4301.538462,4175.897436,4331.794872,4311.282051,4369.230769,4490.25641,4504.615385,4007.179487,4427.692308,4138.461538,4389.230769,4396.410256,4119.487179,4928.205128,1593,1741,74.43,17.03026009,0,0,0,0
124,0,352,4309.230769,4175.897436,4328.205128,4314.871795,4369.230769,4490.769231,4507.692308,4011.282051,4427.692308,4136.410256,4383.589744,4395.384615,4116.410256,4924.615385,1594,1740,74.437,17.03026009,0,0,0,0
125,0,395,4296.410256,4168.717949,4322.051282,4307.692308,4364.102564,4486.666667,4504.615385,4010.769231,4427.692308,4125.641026,4372.820513,4388.205128,4111.282051,4919.487179,1592,1740,74.443,17.03026009,0,0,0,0
126,0,465,4288.717949,4167.692308,4319.487179,4309.230769,4365.128205,4486.666667,4505.128205,4013.333333,4430.25641,4119.487179,4375.897436,4387.179487,4114.358974,4921.025641,1593,1741,74.451,17.03026009,0,0,0,0
127,0,452,4289.230769,4170.25641,4318.461538,4311.794872,4369.230769,4489.74359,4510.769231,4019.487179,4432.307692,4121.538462,4380.512821,4390.25641,4115.384615,4916.410256,1593,1740,74.462,17.03026009,0,0,0,0
128,0,352,4280.512821,4166.666667,4312.307692,4300.512821,4364.615385,4488.717949,4507.179487,4018.974359,4432.820513,4111.794872,4366.153846,4386.153846,4106.666667,4901.538462,1593,1740,74.469,17.53069115,0,0,0,0
0,0,466,4282.564103,4166.666667,4312.307692,4301.538462,4360,4489.74359,4505.641026,4017.435897,4434.871795,4102.564103,4359.487179,4384.615385,4107.179487,4906.153846,1592,1740,74.475,17.53069115,0,0,0,0
1,0,410,4295.897436,4173.333333,4321.538462,4319.487179,4365.128205,4493.846154,4516.923077,4018.974359,4434.358974,4111.794872,4372.307692,4395.897436,4122.051282,4926.666667,1593,1741,74.483,17.53069115,0,0,0,0
2,0,497,4302.051282,4180.512821,4332.820513,4321.538462,4366.153846,4494.358974,4521.025641,4020.512821,4430.25641,4120.512821,4378.974359,4403.589744,4127.692308,4933.333333,1592,1740,74.493,17.53069115,0,0,0,0
3,0,504,4313.846154,4186.153846,4343.589744,4315.897436,4363.589744,4489.230769,4518.974359,4021.538462,4427.179487,4127.179487,4382.051282,4406.666667,4126.153846,4936.923077,1593,1741,74.5,17.53069115,0,0,0,0
4,0,502,4325.641026,4186.153846,4346.666667,4320.512821,4366.666667,4483.589744,4517.948718,4016.923077,4424.615385,4139.487179,4389.74359,4413.333333,4131.794872,4949.230769,1593,1737,74.508,17.53069115,0,0,0,0
5,0,486,4322.051282,4182.051282,4342.564103,4321.538462,4366.153846,4479.487179,4510.769231,4011.794872,4423.076923,4142.564103,4390.769231,4416.410256,4139.487179,4952.820513,1592,1738,74.515,17.53069115,0,0,0,0
6,0,456,4326.153846,4186.666667,4348.205128,4323.589744,4360.512821,4479.487179,4505.641026,4013.846154,4424.102564,4146.153846,4393.846154,4418.461538,4141.025641,4952.820513,1594,1737,74.522,17.53069115,0,0,0,0
7,0,383,4342.051282,4195.384615,4356.923077,4328.205128,4364.102564,4482.051282,4508.205128,4014.871795,4425.128205,4161.538462,4406.666667,4427.179487,4146.666667,4965.128205,1593,1738,74.529,17.53069115,0,0,0,0
8,0,383,4345.641026,4193.846154,4356.923077,4327.692308,4370.25641,4484.615385,4509.74359,4013.846154,4426.666667,4173.846154,4414.871795,4430.769231,4160.512821,4979.487179,1595,1739,74.54,17.53069115,0,0,0,0
9,0,530,4347.692308,4194.358974,4353.846154,4327.179487,4368.717949,4485.641026,4508.205128,4015.897436,4430.25641,4179.487179,4416.923077,4428.717949,4168.205128,4982.051282,1595,1738,74.547,17.53069115,0,0,0,0
10,0,465,4362.051282,4202.564103,4352.820513,4329.74359,4365.128205,4485.128205,4508.717949,4016.923077,4433.846154,4189.230769,4422.051282,4430.769231,4169.230769,4984.615385,1594,1740,74.553,17.53069115,0,0,0,0
11,0,452,4367.179487,4203.589744,4349.74359,4328.717949,4363.589744,4486.666667,4513.846154,4017.435897,4433.333333,4196.923077,4428.717949,4432.307692,4170.25641,4989.74359,1594,1739,74.561,17.53069115,0,0,0,0
12,0,352,4361.025641,4198.974359,4345.128205,4325.641026,4362.051282,4485.128205,4516.923077,4019.487179,4429.230769,4192.820513,4426.666667,4426.153846,4165.641026,4982.051282,1594,1740,74.57,17.53069115,0,0,0,0
13,0,395,4371.282051,4205.128205,4343.589744,4330.25641,4358.461538,4477.948718,4508.717949,4012.307692,4424.102564,4186.153846,4422.564103,4421.538462,4163.076923,4982.051282,1594,1739,74.578,17.53069115,0,0,0,0
14,0,465,4405.641026,4220.512821,4350.769231,4337.435897,4355.897436,4477.435897,4498.461538,4003.076923,4420,4195.384615,4426.666667,4428.717949,4180.512821,5010.25641,1593,1740,74.584,17.53069115,0,0,0,0
15,0,452,4438.974359,4227.692308,4363.076923,4338.461538,4356.923077,4483.076923,4498.974359,4002.564103,4421.538462,4216.410256,4437.948718,4438.461538,4202.051282,5040,1594,1740,74.593,17.53069115,0,0,0,0
16,0,0,4452.820513,4227.692308,4370.25641,4342.051282,4358.974359,4481.538462,4501.025641,4005.128205,4425.128205,4231.282051,4450.25641,4442.051282,4207.179487,5047.179487,1592,1740,74.603,17.53069115,0,0,0,0
17,0,0,4454.358974,4232.820513,4377.435897,4348.717949,4358.461538,4475.897436,4499.487179,4005.641026,4425.641026,4242.564103,4460,4443.589744,4209.74359,5051.282051,1594,1740,74.608,17.53069115,0,0,0,0
18,0,0,4459.487179,4239.487179,4385.128205,4350.769231,4355.897436,4472.307692,4498.974359,4005.641026,4424.102564,4259.487179,4470.25641,4450.769231,4216.923077,5060,1592,1740,74.616,17.53069115,0,0,0,0
19,0,0,4464.615385,4240,4383.076923,4347.692308,4356.410256,4470.769231,4497.948718,4005.128205,4426.153846,4271.282051,4481.538462,4455.897436,4222.051282,5063.076923,1594,1740,74.623,17.53069115,0,0,0,0
20,0,0,4455.897436,4233.333333,4377.948718,4343.589744,4356.923077,4472.820513,4498.461538,4007.179487,4428.717949,4274.871795,4488.717949,4456.410256,4220,5058.461538,1593,1739,74.631,17.53069115,0,0,0,0
21,0,0,4440,4226.153846,4380,4341.025641,4354.358974,4478.461538,4506.666667,4010.769231,4428.205128,4279.487179,4492.307692,4458.974359,4217.435897,5055.897436,1594,1741,74.641,17.53069115,0,0,0,0
22,0,0,4425.641026,4221.025641,4378.974359,4342.051282,4354.871795,4482.051282,4510.25641,4011.794872,4425.641026,4280.512821,4490.769231,4456.410256,4213.333333,5052.307692,1594,1740,74.648,17.53069115,0,0,0,0
23,0,0,4410.769231,4211.282051,4365.641026,4338.461538,4355.384615,4477.435897,4498.974359,4004.615385,4418.461538,4263.076923,4479.487179,4448.717949,4195.384615,5028.717949,1594,1741,74.655,17.53069115,0,0,0,0
24,0,0,4402.051282,4205.641026,4360.512821,4331.794872,4353.846154,4470.769231,4495.897436,4000,4418.461538,4241.538462,4470.25641,4447.692308,4180,5008.205128,1595,1740,74.663,17.53069115,0,0,0,0
25,0,0,4396.923077,4210.25641,4366.666667,4334.871795,4355.384615,4473.333333,4508.717949,4007.179487,4426.153846,4242.564103,4471.282051,4451.794872,4184.102564,5014.358974,1595,1741,74.671,17.53069115,0,0,0,0
26,0,0,4381.538462,4206.666667,4362.051282,4336.923077,4359.487179,4478.461538,4508.717949,4009.230769,4421.538462,4242.564103,4469.74359,4446.666667,4183.076923,5012.307692,1596,1740,74.678,17.53069115,0,0,0,0
27,0,0,4371.282051,4197.435897,4353.846154,4329.230769,4361.025641,4476.410256,4499.487179,4004.102564,4416.923077,4226.666667,4460.512821,4442.564103,4171.282051,4996.410256,1595,1741,74.686,17.53069115,0,0,0,0
28,0,0,4366.666667,4198.974359,4351.794872,4325.128205,4360,4471.794872,4502.564103,4007.692308,4424.615385,4218.974359,4452.820513,4442.564103,4164.615385,4986.153846,1596,1740,74.696,17.53069115,0,0,0,0
29,0,0,4351.794872,4197.948718,4346.153846,4330.25641,4362.051282,4470.769231,4505.128205,4008.717949,4427.179487,4213.333333,4443.076923,4433.333333,4155.384615,4971.794872,1595,1739,74.702,17.53069115,0,0,0,0
30,0,0,4340.512821,4190.769231,4337.948718,4333.846154,4364.102564,4472.820513,4497.435897,3999.487179,4423.589744,4192.307692,4431.794872,4424.615385,4143.589744,4955.384615,1595,1740,74.709,17.53069115,0,0,0,0
31,0,0,4335.897436,4188.717949,4332.307692,4329.230769,4360,4474.871795,4495.384615,3996.923077,4422.051282,4173.846154,4422.051282,4423.589744,4134.871795,4946.666667,1594,1739,74.717,17.78090477,0,0,0,0
32,0,0,4320.512821,4184.102564,4321.538462,4318.461538,4356.923077,4471.794872,4502.051282,4000,4418.461538,4161.538462,4409.230769,4419.487179,4128.717949,4940.512821,1594,1740,74.726,17.78090477,0,0,0,0
33,0,0,4305.641026,4175.897436,4311.794872,4313.846154,4356.923077,4473.333333,4502.564103,4002.051282,4416.923077,4144.102564,4397.435897,4415.897436,4128.205128,4938.974359,1594,1738,74.733,17.78090477,0,0,0,0
34,0,0,4302.564103,4172.307692,4311.282051,4318.974359,4355.384615,4480.512821,4499.487179,4004.615385,4421.025641,4130.25641,4390.25641,4420,4125.641026,4935.384615,1593,1740,74.74,17.78090477,0,0,0,0
35,0,0,4298.974359,4170.25641,4310.769231,4321.025641,4351.282051,4481.538462,4503.589744,4005.641026,4423.076923,4121.538462,4383.076923,4419.487179,4117.435897,4921.538462,1594,1739,74.748,17.78090477,0,0,0,0
36,0,0,4295.897436,4167.692308,4307.692308,4317.948718,4351.794872,4479.487179,4508.205128,4004.102564,4418.974359,4111.794872,4371.282051,4412.820513,4112.820513,4915.384615,1593,1740,74.756,17.78090477,0,0,0,0
37,0,0,4296.923077,4163.589744,4306.153846,4315.384615,4352.307692,4477.948718,4502.564103,4002.564103,4416.410256,4101.538462,4361.538462,4415.384615,4111.794872,4920,1593,1739,74.764,17.78090477,0,0,0,0
38,0,0,4297.948718,4162.051282,4304.102564,4314.871795,4347.692308,4474.871795,4495.897436,4000,4417.435897,4090.769231,4360.512821,4418.461538,4110.769231,4923.076923,1593,1740,74.773,17.78090477,0,0,0,0
39,0,0,4303.076923,4167.179487,4309.74359,4314.871795,4346.153846,4475.897436,4498.974359,3999.487179,4419.487179,4089.230769,4362.051282,4419.487179,4117.435897,4930.769231,1593,1740,74.781,17.78090477,0,0,0,0
40,0,0,4304.102564,4169.230769,4316.410256,4314.871795,4349.74359,4476.923077,4500.512821,3999.487179,4418.461538,4089.230769,4355.897436,4419.487179,4122.051282,4935.384615,1593,1741,74.787,17.78090477,0,0,0,0
41,0,0,4297.435897,4161.538462,4313.333333,4315.384615,4348.205128,4470.25641,4492.820513,3991.794872,4412.307692,4074.871795,4344.102564,4413.846154,4114.358974,4927.179487,1593,1740,74.795,17.78090477,0,0,0,0
42,0,0,4298.974359,4162.051282,4308.205128,4314.358974,4346.666667,4469.230769,4493.846154,3989.74359,4412.820513,4068.205128,4341.538462,4412.820513,4110.25641,4919.487179,1593,1741,74.803,17.78090477,0,0,0,0
43,0,0,4303.076923,4166.666667,4309.230769,4314.358974,4348.205128,4474.871795,4501.025641,3996.410256,4420,4073.846154,4343.076923,4417.948718,4110.769231,4915.897436,1594,1740,74.811,17.78090477,0,0,0,0
44,0,0,4295.384615,4159.487179,4309.230769,4312.307692,4348.717949,4469.74359,4497.948718,3994.871795,4417.948718,4065.128205,4334.358974,4415.384615,4105.128205,4912.307692,1594,1741,74.819,17.78090477,0,0,0,0
45,0,0,4286.153846,4156.410256,4304.102564,4309.74359,4350.25641,4462.051282,4495.897436,3990.25641,4412.307692,4053.333333,4327.692308,4411.282051,4100.512821,4913.333333,1594,1741,74.826,17.78090477,0,0,0,0
46,0,0,4287.179487,4163.076923,4302.564103,4311.282051,4352.307692,4465.641026,4502.564103,3996.923077,4416.410256,4058.461538,4332.820513,4416.410256,4105.641026,4915.897436,1593,1742,74.834,17.78090477,0,0,0,0
47,0,0,4289.74359,4163.589744,4306.666667,4312.307692,4349.230769,4467.692308,4505.641026,4003.076923,4419.487179,4061.025641,4336.410256,4417.948718,4109.74359,4912.307692,1594,1741,74.843,17.90601349,0,0,0,0
48,0,0,4284.615385,4158.974359,4307.179487,4310.769231,4344.102564,4463.589744,4502.564103,4000.512821,4414.871795,4051.794872,4330.769231,4413.846154,4106.666667,4911.282051,1593,1741,74.851,17.90601349,0,0,0,0
49,0,0,4279.487179,4160,4302.051282,4311.282051,4345.641026,4465.641026,4500.512821,3996.410256,4415.897436,4050.769231,4328.717949,4416.923077,4107.179487,4917.435897,1594,1742,74.858,17.90601349,0,0,0,0
50,0,0,4286.153846,4163.589744,4300,4311.282051,4348.717949,4467.692308,4497.948718,3993.846154,4414.871795,4052.820513,4326.666667,4417.948718,4108.717949,4919.487179,1594,1741,74.866,17.90601349,0,0,0,0
51,0,0,4300.512821,4162.051282,4302.051282,4307.692308,4347.179487,4459.487179,4490.769231,3992.307692,4407.692308,4045.128205,4318.974359,4417.948718,4108.717949,4918.461538,1593,1742,74.873,17.93729019,0,0,0,0
52,0,0,4306.666667,4161.025641,4307.692308,4308.717949,4344.102564,4456.923077,4487.692308,3994.358974,4411.282051,4043.589744,4318.461538,4424.102564,4111.282051,4922.051282,1594,1741,74.881,17.93729019,0,0,0,0
53,0,0,4304.615385,4164.615385,4314.871795,4314.358974,4345.641026,4462.051282,4493.846154,3994.871795,4415.384615,4053.333333,4324.615385,4424.615385,4112.307692,4925.641026,1594,1742,74.889,17.93729019,0,0,0,0
54,0,0,4298.974359,4166.666667,4311.794872,4314.358974,4346.153846,4458.974359,4493.846154,3991.794872,4409.230769,4053.333333,4324.615385,4417.435897,4106.666667,4921.025641,1595,1742,74.897,17.93729019,0,0,0,0
55,0,0,4292.307692,4161.025641,4300.512821,4309.230769,4344.102564,4454.358974,4486.666667,3989.230769,4408.717949,4038.974359,4317.948718,4413.333333,4103.076923,4915.897436,1594,1742,74.905,17.93729019,0,0,0,0
56,0,0,4286.153846,4152.820513,4291.794872,4304.102564,4343.076923,4452.820513,4485.128205,3985.641026,4410.25641,4027.179487,4309.230769,4410.769231,4101.538462,4911.282051,1594,1741,74.912,17.93729019,0,0,0,0
57,0,0,4278.974359,4150.25641,4284.102564,4302.564103,4342.564103,4450.25641,4487.692308,3982.051282,4405.128205,4020.512821,4301.025641,4404.102564,4095.384615,4904.102564,1594,1742,74.92,17.93729019,0,0,0,0
58,0,0,4274.871795,4153.333333,4283.589744,4309.74359,4345.641026,4456.923077,4491.282051,3988.717949,4408.717949,4017.435897,4300.512821,4402.564103,4095.384615,4903.076923,1595,1741,74.928,17.93729019,0,0,0,0
59,0,0,4278.974359,4157.948718,4287.692308,4314.358974,4349.74359,4467.692308,4496.923077,3996.410256,4417.948718,4020,4303.589744,4404.615385,4098.461538,4903.076923,1593,1741,74.936,17.93729019,0,0,0,0
60,0,0,4284.102564,4159.487179,4287.179487,4311.282051,4349.230769,4468.205128,4499.487179,3995.384615,4414.871795,4018.974359,4303.589744,4404.102564,4096.923077,4901.538462,1594,1741,74.944,17.93729019,0,0,0,0
61,0,0,4281.025641,4156.923077,4284.615385,4310.25641,4345.641026,4467.692308,4500.512821,3993.333333,4412.307692,4014.871795,4299.487179,4404.615385,4094.871795,4900.512821,1593,1740,74.952,17.93729019,0,0,0,0
62,0,0,4278.461538,4157.435897,4289.74359,4310.25641,4347.179487,4469.74359,4505.641026,3993.333333,4416.410256,4018.461538,4297.435897,4407.179487,4094.871795,4902.051282,1593,1741,74.961,17.93729019,0,0,0,0
63,0,0,4284.102564,4161.538462,4295.897436,4305.641026,4350.25641,4469.230769,4506.153846,3991.282051,4414.871795,4022.564103,4300,4409.74359,4096.410256,4906.666667,1594,1740,74.967,18.0311203,0,0,0,0
64,0,466,4292.820513,4163.076923,4295.897436,4305.641026,4351.282051,4466.666667,4503.076923,3988.717949,4407.692308,4023.076923,4304.615385,4416.410256,4101.025641,4915.897436,1592,1741,74.976,18.0311203,0,0,0,0
65,0,410,4300.512821,4165.128205,4296.923077,4313.333333,4352.820513,4463.589744,4504.102564,3988.717949,4409.230769,4032.307692,4309.74359,4422.051282,4109.230769,4924.102564,1593,1740,74.984,18.0311203,0,0,0,0
66,0,497,4303.589744,4166.153846,4301.538462,4314.871795,4354.358974,4456.923077,4499.487179,3989.230769,4415.897436,4041.538462,4315.897436,4421.025641,4110.769231,4922.564103,1593,1740,74.991,18.0311203,0,0,0,0
67,0,504,4300,4160.512821,4301.538462,4312.307692,4353.333333,4453.333333,4494.871795,3990.769231,4418.461538,4040.512821,4317.435897,4422.051282,4107.692308,4921.538462,1593,1741,74.999,18.0311203,0,0,0,0
68,0,502,4298.974359,4158.461538,4297.435897,4311.794872,4353.846154,4460,4502.051282,3996.410256,4421.025641,4041.025641,4318.974359,4427.179487,4110.25641,4930.25641,1593,1741,75.006,18.0311203,0,0,0,0
69,0,486,4302.564103,4166.153846,4298.461538,4311.282051,4356.410256,4462.051282,4505.641026,3996.410256,4420,4046.153846,4323.589744,4426.666667,4113.333333,4932.307692,1592,1740,75.015,18.0311203,0,0,0,0
70,0,456,4297.435897,4168.205128,4302.564103,4313.333333,4358.461538,4461.025641,4501.538462,3993.846154,4420,4053.333333,4329.230769,4425.641026,4112.820513,4924.102564,1593,1740,75.022,18.0311203,0,0,0,0
71,0,383,4285.641026,4163.589744,4297.435897,4316.410256,4357.948718,4462.051282,4505.641026,3997.435897,4424.102564,4059.487179,4332.307692,4427.692308,4111.794872,4923.076923,1593,1741,75.03,18.0311203,0,0,0,0
72,0,383,4282.564103,4163.076923,4286.153846,4311.282051,4355.384615,4460.512821,4509.230769,3998.461538,4423.589744,4057.948718,4331.794872,4422.051282,4111.282051,4925.128205,1593,1739,75.038,18.0311203,0,0,0,0
73,0,530,4287.692308,4165.128205,4281.538462,4303.076923,4355.384615,4457.948718,4505.128205,3993.846154,4418.461538,4049.74359,4326.153846,4415.897436,4107.692308,4920,1592,1740,75.045,18.0311203,0,0,0,0
74,0,465,4285.641026,4165.128205,4285.128205,4304.615385,4355.897436,4456.923077,4502.051282,3992.307692,4417.948718,4042.564103,4320.512821,4416.923077,4103.076923,4913.846154,1593,1739,75.053,18.0311203,0,0,0,0
75,0,452,4282.051282,4165.641026,4288.205128,4308.717949,4355.384615,4458.461538,4501.538462,3994.358974,4420,4040,4323.076923,4419.487179,4102.564103,4914.871795,1592,1740,75.061,18.0311203,0,0,0,0
76,0,353,4287.692308,4166.666667,4286.666667,4310.769231,4357.948718,4460,4505.128205,3994.358974,4419.487179,4043.589744,4327.179487,4416.923077,4104.102564,4917.435897,1593,1740,75.069,18.0311203,0,0,0,0
77,0,395,4286.153846,4164.615385,4283.076923,4312.307692,4360,4461.538462,4508.717949,3992.307692,4417.435897,4042.051282,4323.589744,4413.333333,4098.974359,4908.717949,1592,1739,75.078,18.0311203,0,0,0,0
78,0,465,4276.923077,4165.128205,4286.153846,4310.769231,4356.923077,4463.589744,4508.205128,3994.358974,4417.435897,4034.358974,4317.948718,4413.333333,4091.794872,4898.974359,1593,1740,75.085,18.0311203,0,0,0,0
79,0,452,4281.538462,4167.179487,4291.794872,4308.717949,4354.871795,4463.589744,4509.230769,3997.435897,4419.487179,4033.333333,4317.435897,4414.871795,4096.410256,4906.153846,1593,1739,75.093,18.15622902,0,0,0,0
80,0,353,4294.358974,4164.102564,4295.384615,4311.794872,4356.923077,4460,4510.25641,3997.948718,4417.948718,4040,4320.512821,4416.923077,4105.128205,4914.871795,1594,1740,75.101,18.15622902,0,0,0,0
81,0,395,4295.384615,4161.025641,4297.948718,4313.333333,4357.948718,4461.538462,4506.153846,3993.846154,4411.794872,4040.512821,4322.051282,4417.948718,4102.051282,4916.410256,1593,1739,75.108,18.15622902,0,0,0,0
82,0,465,4294.358974,4158.974359,4301.025641,4306.666667,4355.897436,4464.102564,4504.102564,3988.205128,4408.717949,4035.897436,4316.923077,4417.948718,4096.923077,4919.487179,1594,1738,75.116,18.15622902,0,0,0,0
83,0,452,4298.461538,4156.923077,4298.461538,4304.615385,4353.333333,4461.025641,4503.589744,3982.564103,4407.692308,4031.794872,4310.769231,4412.307692,4097.435897,4920.512821,1595,1736,75.124,18.15622902,0,0,0,0
84,0,353,4298.461538,4156.410256,4296.923077,4307.692308,4353.333333,4461.025641,4502.051282,3979.487179,4407.692308,4030.25641,4311.794872,4408.205128,4102.564103,4918.974359,1594,1740,75.131,18.15622902,0,0,0,0
85,0,395,4294.871795,4160,4300,4307.692308,4355.384615,4466.153846,4499.487179,3983.076923,4410.769231,4032.307692,4317.435897,4414.358974,4105.641026,4920.512821,1596,1740,75.14,18.15622902,0,0,0,0
86,0,465,4294.358974,4160.512821,4296.923077,4306.153846,4354.358974,4464.615385,4494.358974,3983.076923,4412.307692,4031.282051,4315.384615,4417.435897,4105.128205,4921.025641,1594,1741,75.147,18.15622902,0,0,0,0
87,0,452,4290.769231,4155.384615,4292.820513,4305.641026,4348.205128,4460.512821,4493.333333,3980.512821,4410.25641,4028.205128,4314.358974,4414.871795,4102.564103,4920,1596,1741,75.156,18.15622902,0,0,0,0
88,0,353,4286.666667,4153.846154,4293.846154,4304.615385,4349.74359,4460.512821,4497.948718,3983.589744,4412.820513,4027.692308,4319.487179,4415.897436,4102.051282,4918.461538,1595,1740,75.163,18.15622902,0,0,0,0
89,0,395,4285.641026,4157.435897,4289.230769,4305.641026,4355.384615,4460,4498.461538,3986.153846,4413.846154,4027.692308,4317.948718,4413.846154,4100.512821,4913.846154,1595,1741,75.171,18.15622902,0,0,0,0
90,0,465,4283.076923,4157.435897,4285.641026,4308.717949,4353.333333,4464.102564,4502.051282,3989.74359,4414.871795,4034.358974,4318.974359,4410.769231,4100,4913.333333,1595,1741,75.178,18.15622902,0,0,0,0
91,0,452,4280,4152.307692,4285.641026,4305.128205,4352.307692,4471.282051,4509.230769,3997.435897,4418.974359,4040,4325.641026,4412.820513,4100.512821,4913.846154,1595,1742,75.186,18.15622902,0,0,0,0
92,0,353,4276.923077,4147.692308,4279.487179,4300,4351.794872,4471.794872,4512.820513,4001.025641,4420,4033.846154,4321.025641,4408.205128,4093.846154,4904.102564,1595,1741,75.194,18.15622902,0,0,0,0
93,0,395,4272.307692,4148.205128,4276.410256,4303.076923,4349.230769,4476.410256,4517.948718,4001.025641,4416.923077,4029.230769,4314.358974,4402.564103,4090.25641,4898.461538,1594,1742,75.202,18.15622902,0,0,0,0
94,0,465,4270.25641,4151.282051,4276.410256,4307.179487,4351.282051,4482.564103,4520.512821,3997.948718,4414.358974,4026.666667,4314.871795,4401.538462,4090.769231,4897.435897,1594,1741,75.21,18.15622902,0,0,0,0
95,0,452,4270.769231,4150.25641,4269.230769,4300.512821,4353.846154,4472.307692,4512.307692,3987.179487,4408.205128,4016.410256,4307.692308,4397.435897,4082.564103,4889.230769,1593,1742,75.217,18.28133583,0,0,0,0
96,0,353,4270.25641,4144.615385,4265.641026,4293.846154,4350.25641,4457.435897,4500.512821,3976.923077,4400,4002.051282,4295.384615,4393.846154,4075.897436,4884.102564,1592,1741,75.226,18.28133583,0,0,0,0
97,0,395,4270.769231,4143.589744,4271.794872,4298.974359,4343.589744,4456.923077,4493.846154,3975.897436,4400,3991.794872,4290.25641,4395.897436,4076.923077,4887.179487,1593,1741,75.233,18.28133583,0,0,0,0
98,0,465,4283.076923,4154.871795,4278.974359,4307.179487,4344.615385,4464.102564,4496.410256,3978.461538,4406.666667,3996.410256,4291.794872,4403.589744,4085.128205,4895.897436,1593,1739,75.241,18.28133583,0,0,0,0
99,0,452,4290.769231,4163.589744,4288.205128,4309.74359,4350.25641,4467.179487,4501.025641,3982.564103,4409.230769,4012.307692,4302.051282,4413.846154,4097.948718,4908.717949,1593,1741,75.249,18.28133583,0,0,0,0
100,0,353,4283.076923,4156.410256,4290.25641,4304.615385,4349.230769,4465.641026,4498.974359,3978.974359,4407.179487,4016.923077,4308.205128,4413.846154,4100,4915.384615,1593,1739,75.257,18.28133583,0,0,0,0
101,0,395,4282.564103,4148.717949,4283.589744,4301.025641,4347.179487,4466.666667,4498.974359,3974.871795,4408.205128,4015.897436,4306.666667,4406.153846,4097.435897,4914.871795,1593,1740,75.264,18.28133583,0,0,0,0
102,0,465,4290.769231,4150.25641,4283.076923,4305.128205,4351.794872,4472.307692,4509.74359,3985.128205,4414.871795,4027.692308,4313.333333,4409.74359,4102.051282,4915.897436,1593,1739,75.273,18.28133583,0,0,0,0
103,0,452,4289.230769,4150.769231,4281.538462,4305.128205,4352.307692,4472.307692,4512.820513,3992.820513,4416.410256,4030.769231,4316.923077,4414.358974,4098.974359,4908.717949,1592,1740,75.281,18.28133583,0,0,0,0
104,0,353,4281.025641,4151.282051,4277.435897,4303.076923,4343.589744,4470.25641,4508.205128,3988.717949,4414.871795,4020,4311.282051,4411.282051,4089.74359,4901.538462,1594,1739,75.288,18.28133583,0,0,0,0
105,0,395,4281.538462,4157.435897,4283.076923,4307.179487,4344.102564,4476.410256,4514.358974,3990.769231,4419.487179,4029.74359,4316.923077,4414.871795,4098.461538,4915.897436,1592,1739,75.296,18.28133583,0,0,0,0
106,0,465,4290.769231,4160.512821,4287.179487,4307.692308,4352.307692,4481.538462,4519.487179,3999.487179,4424.615385,4047.179487,4329.74359,4422.051282,4109.230769,4925.128205,1594,1740,75.303,18.28133583,0,0,0,0
107,0,452,4296.923077,4157.948718,4283.076923,4300,4352.820513,4476.410256,4514.358974,3997.948718,4422.051282,4045.128205,4329.74359,4419.487179,4101.025641,4912.307692,1593,1739,75.311,18.28133583,0,0,0,0
108,0,353,4291.282051,4153.333333,4281.538462,4296.410256,4346.666667,4470.25641,4508.205128,3993.333333,4418.461538,4040,4326.153846,4416.410256,4095.897436,4910.769231,1593,1740,75.319,18.28133583,0,0,0,0
109,0,395,4288.717949,4154.871795,4285.128205,4297.948718,4346.153846,4474.871795,4511.794872,3995.897436,4420,4049.230769,4330.769231,4419.487179,4104.102564,4918.974359,1593,1739,75.327,18.28133583,0,0,0,0
110,0,465,4291.794872,4159.487179,4284.102564,4300,4350.25641,4479.487179,4516.410256,3991.282051,4419.487179,4053.846154,4332.307692,4418.461538,4100,4909.74359,1593,1740,75.336,18.28133583,0,0,0,0
111,0,452,4288.205128,4157.435897,4282.051282,4306.666667,4352.820513,4476.923077,4515.384615,3987.692308,4414.358974,4046.666667,4328.717949,4416.410256,4090.25641,4899.487179,1594,1739,75.343,18.28133583,0,0,0,0
112,0,353,4280.512821,4153.846154,4277.948718,4306.153846,4351.794872,4478.974359,4512.820513,3994.358974,4416.410256,4042.051282,4325.641026,4417.435897,4094.358974,4903.076923,1593,1741,75.35,18.28133583,0,0,0,0
113,0,395,4278.461538,4152.820513,4271.794872,4294.871795,4347.692308,4482.051282,4512.820513,3995.384615,4418.974359,4040.512821,4325.641026,4417.948718,4098.461538,4906.153846,1593,1740,75.358,18.28133583,0,0,0,0
114,0,465,4285.641026,4153.846154,4271.794872,4294.871795,4345.641026,4478.974359,4518.974359,3989.74359,4415.897436,4040,4324.102564,4415.897436,4093.846154,4905.641026,1592,1741,75.366,18.28133583,0,0,0,0
115,0,452,4287.179487,4155.897436,4273.846154,4305.128205,4348.717949,4482.051282,4523.589744,3994.871795,4415.897436,4040.512821,4323.589744,4414.871795,4090.25641,4902.051282,1593,1740,75.374,18.28133583,0,0,0,0
116,0,353,4277.435897,4155.897436,4271.282051,4306.153846,4351.794872,4491.794872,4523.076923,4003.076923,4420.512821,4042.564103,4327.692308,4417.435897,4091.794872,4898.461538,1592,1740,75.383,18.28133583,0,0,0,0
117,0,395,4273.333333,4150.25641,4266.666667,4301.025641,4347.179487,4486.666667,4519.487179,3997.948718,4420,4037.435897,4324.615385,4416.923077,4089.230769,4898.974359,1593,1741,75.389,18.28133583,0,0,0,0
118,0,465,4276.923077,4147.692308,4266.153846,4296.410256,4341.025641,4474.358974,4514.871795,3989.74359,4413.333333,4029.230769,4315.384615,4413.333333,4083.076923,4897.435897,1592,1740,75.397,18.28133583,0,0,0,0
119,0,452,4275.897436,4148.717949,4266.153846,4293.333333,4338.461538,4471.794872,4510.769231,3987.692308,4413.333333,4025.128205,4311.794872,4412.820513,4081.538462,4888.205128,1592,1741,75.405,18.28133583,0,0,0,0
120,0,353,4271.282051,4149.230769,4262.564103,4293.846154,4335.897436,4467.692308,4507.692308,3985.128205,4414.358974,4016.923077,4307.692308,4412.307692,4080,4882.051282,1593,1739,75.413,18.28133583,0,0,0,0
121,0,395,4274.358974,4153.333333,4268.717949,4301.538462,4337.948718,4464.102564,4513.333333,3988.717949,4416.923077,4014.871795,4306.153846,4415.384615,4081.538462,4892.307692,1592,1739,75.423,18.28133583,0,0,0,0
122,0,465,4283.076923,4159.487179,4281.025641,4306.666667,4343.076923,4468.205128,4520,3997.435897,4423.076923,4027.179487,4313.846154,4424.102564,4092.307692,4904.102564,1593,1738,75.431,18.28133583,0,0,0,0
123,0,452,4282.564103,4158.974359,4282.051282,4308.205128,4341.538462,4471.794872,4519.487179,3996.923077,4422.051282,4037.435897,4318.461538,4426.666667,4094.871795,4902.564103,1593,1738,75.436,18.28133583,0,0,0,0
124,0,353,4274.871795,4155.897436,4280,4305.128205,4340.512821,4470.769231,4517.435897,3991.794872,4413.846154,4035.897436,4315.897436,4422.051282,4085.128205,4897.435897,1593,1738,75.444,18.28133583,0,0,0,0
125,0,395,4276.410256,4153.333333,4285.128205,4300,4342.051282,4468.717949,4514.871795,3991.794872,4409.230769,4026.153846,4313.333333,4420.512821,4080.512821,4894.871795,1592,1739,75.454,18.28133583,0,0,0,0
126,0,465,4282.564103,4150.769231,4287.179487,4301.538462,4340.512821,4471.794872,4513.846154,3989.230769,4410.25641,4019.487179,4310.25641,4422.051282,4082.051282,4891.794872,1593,1739,75.461,18.28133583,0,0,0,0
127,0,452,4277.435897,4150.769231,4282.564103,4304.102564,4339.487179,4476.410256,4515.384615,3984.102564,4409.74359,4018.461538,4308.205128,4421.025641,4081.025641,4890.769231,1592,1738,75.469,18.53155136,0,0,0,0
128,0,353,4274.358974,4151.282051,4278.461538,4302.051282,4341.025641,4471.794872,4512.820513,3983.076923,4408.717949,4015.897436,4304.102564,4418.461538,4077.435897,4890.769231,1593,1739,75.477,18.53155136,0,0,0,0
0,0,466,4285.128205,4152.820513,4277.435897,4302.564103,4341.025641,4467.692308,4508.205128,3986.153846,4408.717949,4011.794872,4300,4417.948718,4077.435897,4889.230769,1593,1739,75.486,18.53155136,0,0,0,0
1,0,410,4286.666667,4155.384615,4275.384615,4299.487179,4341.538462,4469.74359,4507.692308,3985.641026,4407.179487,4009.74359,4298.461538,4419.487179,4081.538462,4886.666667,1592,1740,75.494,18.53155136,0,0,0,0
2,0,497,4278.461538,4151.794872,4274.871795,4292.820513,4342.051282,4465.641026,4505.641026,3983.076923,4406.153846,4006.666667,4296.923077,4418.461538,4080,4885.641026,1592,1739,75.499,18.53155136,0,0,0,0
3,0,504,4281.025641,4150.769231,4275.897436,4297.435897,4340,4461.025641,4503.589744,3983.076923,4406.666667,4005.128205,4292.820513,4416.410256,4080,4894.871795,1591,1740,75.508,18.53155136,0,0,0,0
4,0,502,4287.179487,4152.307692,4272.820513,4306.153846,4340.512821,4468.205128,4508.205128,3986.153846,4408.717949,4011.794872,4296.923077,4418.974359,4086.666667,4901.025641,1592,1739,75.517,18.53155136,0,0,0,0
5,0,486,4278.461538,4150.25641,4265.641026,4303.589744,4344.615385,4470.25641,4507.692308,3986.666667,4411.794872,4019.487179,4303.589744,4418.461538,4085.128205,4888.205128,1591,1739,75.523,18.53155136,0,0,0,0
6,0,456,4267.179487,4149.230769,4265.128205,4296.410256,4343.076923,4463.589744,4504.615385,3986.153846,4412.820513,4017.435897,4300.512821,4414.871795,4083.589744,4887.692308,1592,1739,75.53,18.53155136,0,0,0,0
7,0,383,4272.820513,4151.282051,4271.794872,4294.871795,4338.974359,4467.692308,4511.282051,3988.205128,4411.794872,4016.410256,4302.051282,4419.487179,4094.358974,4908.205128,1591,1739,75.538,18.53155136,0,0,0,0
8,0,384,4284.615385,4155.897436,4278.974359,4301.025641,4342.051282,4477.435897,4522.051282,3992.307692,4416.923077,4031.282051,4312.820513,4429.74359,4102.051282,4919.487179,1593,1739,75.548,18.53155136,0,0,0,0
9,0,530,4290.25641,4158.974359,4286.666667,4305.128205,4346.153846,4476.410256,4524.102564,3992.820513,4421.538462,4047.692308,4321.538462,4434.871795,4100.512821,4916.923077,1591,1739,75.555,18.53155136,0,0,0,0
10,0,465,4292.820513,4161.025641,4290.769231,4303.589744,4344.615385,4470.25641,4518.974359,3991.282051,4416.410256,4047.692308,4324.615385,4440,4101.025641,4915.897436,1593,1740,75.562,18.53155136,0,0,0,0
11,0,452,4300,4162.051282,4292.820513,4305.128205,4344.615385,4469.230769,4515.384615,3992.307692,4409.230769,4048.205128,4327.692308,4446.153846,4103.589744,4915.384615,1593,1739,75.569,18.53155136,0,0,0,0
12,0,354,4303.076923,4158.974359,4296.410256,4306.666667,4345.641026,4463.589744,4514.358974,3989.74359,4408.205128,4053.846154,4330.25641,4443.589744,4100.512821,4916.410256,1593,1740,75.578,18.53155136,0,0,0,0
13,0,395,4295.384615,4149.74359,4297.435897,4302.051282,4342.051282,4452.820513,4509.74359,3985.641026,4410.25641,4045.641026,4326.153846,4435.384615,4097.435897,4916.410256,1594,1738,75.585,18.53155136,0,0,0,0
14,0,465,4286.153846,4143.076923,4289.74359,4298.461538,4336.923077,4449.230769,4505.641026,3982.564103,4408.717949,4030.25641,4315.897436,4433.333333,4093.333333,4908.717949,1594,1740,75.593,18.53155136,0,0,0,0
15,0,452,4283.076923,4147.692308,4282.051282,4300,4338.461538,4453.846154,4505.641026,3982.051282,4408.717949,4026.666667,4311.794872,4433.846154,4095.897436,4909.74359,1594,1738,75.602,18.53155136,0,0,0,0
16,0,0,4280,4148.717949,4280,4297.948718,4343.076923,4457.948718,4508.205128,3986.153846,4413.846154,4032.820513,4314.358974,4430.25641,4100.512821,4917.948718,1594,1738,75.608,18.53155136,0,0,0,0
17,0,0,4278.974359,4143.589744,4278.974359,4295.897436,4342.051282,4461.538462,4512.820513,3991.794872,4418.974359,4036.410256,4312.307692,4427.179487,4095.897436,4906.666667,1594,1738,75.616,18.53155136,0,0,0,0
18,0,0,4285.641026,4147.179487,4280.512821,4296.923077,4340.512821,4463.076923,4519.487179,3992.307692,4418.974359,4036.923077,4312.820513,4432.307692,4092.307692,4894.358974,1593,1738,75.624,18.53155136,0,0,0,0
19,0,0,4284.615385,4149.74359,4277.435897,4295.897436,4341.025641,4456.410256,4513.846154,3984.102564,4415.384615,4031.794872,4317.435897,4433.846154,4097.435897,4904.615385,1593,1738,75.633,18.53155136,0,0,0,0
20,0,0,4277.948718,4146.666667,4274.871795,4294.871795,4339.487179,4454.358974,4506.666667,3980.512821,4413.333333,4027.692308,4314.358974,4427.179487,4098.974359,4914.871795,1593,1738,75.64,18.53155136,0,0,0,0
21,0,0,4282.564103,4150.25641,4281.538462,4300,4339.487179,4463.076923,4515.897436,3988.717949,4415.384615,4033.333333,4310.25641,4430.769231,4097.948718,4913.333333,1593,1738,75.648,18.53155136,0,0,0,0
22,0,0,4290.25641,4156.410256,4290.25641,4308.717949,4342.564103,4466.153846,4524.102564,3996.923077,4418.974359,4045.128205,4318.461538,4442.051282,4103.076923,4913.846154,1592,1739,75.655,18.53155136,0,0,0,0
23,0,0,4290.25641,4154.358974,4293.333333,4309.230769,4343.589744,4461.538462,4519.487179,3992.307692,4415.897436,4049.74359,4326.153846,4444.102564,4107.692308,4917.435897,1593,1739,75.663,18.53155136,0,0,0,0
24,0,0,4288.205128,4153.846154,4291.794872,4304.615385,4342.051282,4455.897436,4513.846154,3983.076923,4407.692308,4043.589744,4322.051282,4437.435897,4101.538462,4912.820513,1592,1738,75.671,18.53155136,0,0,0,0
25,0,0,4289.74359,4152.820513,4290.25641,4305.641026,4341.025641,4449.230769,4509.74359,3976.923077,4402.564103,4035.897436,4314.871795,4436.410256,4093.846154,4905.128205,1593,1738,75.679,18.53155136,0,0,0,0
26,0,0,4290.25641,4149.230769,4289.74359,4306.153846,4336.923077,4444.102564,4503.076923,3974.871795,4398.974359,4028.205128,4307.692308,4438.461538,4092.820513,4902.051282,1592,1739,75.687,18.53155136,0,0,0,0
27,0,0,4288.205128,4152.307692,4291.282051,4304.615385,4334.358974,4446.666667,4506.666667,3978.974359,4401.538462,4024.102564,4304.102564,4438.974359,4095.384615,4905.128205,1593,1739,75.694,18.53155136,0,0,0,0
28,0,0,4288.205128,4156.410256,4293.333333,4304.102564,4340,4452.307692,4514.871795,3985.128205,4409.230769,4029.230769,4306.153846,4440,4097.435897,4910.25641,1592,1739,75.702,18.53155136,0,0,0,0
29,0,0,4291.282051,4151.282051,4293.846154,4302.051282,4343.589744,4455.384615,4513.846154,3988.205128,4411.794872,4035.897436,4307.692308,4443.076923,4098.461538,4911.282051,1594,1739,75.711,18.53155136,0,0,0,0
30,0,0,4283.589744,4145.128205,4289.230769,4297.435897,4340.512821,4457.435897,4513.333333,3988.717949,4409.74359,4036.410256,4306.153846,4443.076923,4096.410256,4905.641026,1593,1738,75.718,18.53155136,0,0,0,0
31,0,0,4276.923077,4144.615385,4278.461538,4299.487179,4337.948718,4458.974359,4517.435897,3989.230769,4412.820513,4031.282051,4306.666667,4435.897436,4091.794872,4897.435897,1592,1740,75.726,18.53155136,0,0,0,0
32,0,0,4282.051282,4145.641026,4275.384615,4303.589744,4339.487179,4458.974359,4519.487179,3990.25641,4415.897436,4030.25641,4308.717949,4433.333333,4092.820513,4898.974359,1594,1738,75.734,18.53155136,0,0,0,0
33,0,0,4281.538462,4147.179487,4282.051282,4298.461538,4344.102564,4455.384615,4516.410256,3987.179487,4411.282051,4032.307692,4307.179487,4439.487179,4097.948718,4909.230769,1592,1739,75.741,18.53155136,0,0,0,0
34,0,0,4275.384615,4149.74359,4282.051282,4294.871795,4349.74359,4450.769231,4513.846154,3980.512821,4405.128205,4029.230769,4302.564103,4443.589744,4098.461538,4911.794872,1592,1739,75.749,18.53155136,0,0,0,0
35,0,0,4281.025641,4151.282051,4276.410256,4301.538462,4347.692308,4450.25641,4509.74359,3976.923077,4402.051282,4024.615385,4299.487179,4442.564103,4096.410256,4908.205128,1592,1738,75.757,18.53155136,0,0,0,0
36,0,0,4284.102564,4153.333333,4276.410256,4307.692308,4340,4445.641026,4503.589744,3976.410256,4400.512821,4020.512821,4298.461538,4442.051282,4094.871795,4901.538462,1593,1739,75.765,18.53155136,0,0,0,0
37,0,0,4276.923077,4154.871795,4285.128205,4305.128205,4335.384615,4441.025641,4505.128205,3978.461538,4402.564103,4019.487179,4297.948718,4450.25641,4093.846154,4901.025641,1592,1739,75.773,18.53155136,0,0,0,0
38,0,0,4282.564103,4156.923077,4294.871795,4303.589744,4335.897436,4449.74359,4514.358974,3985.128205,4410.769231,4031.794872,4305.641026,4464.102564,4103.076923,4914.358974,1593,1739,75.781,18.53155136,0,0,0,0
39,0,0,4296.923077,4160,4300,4312.307692,4338.974359,4460.512821,4518.974359,3990.25641,4415.897436,4051.794872,4319.487179,4469.74359,4115.897436,4928.205128,1593,1739,75.788,18.53155136,0,0,0,0
40,0,0,4297.948718,4160,4299.487179,4315.384615,4340.512821,4461.025641,4516.410256,3988.205128,4411.282051,4059.487179,4325.128205,4467.692308,4116.410256,4928.717949,1593,1739,75.796,18.53155136,0,0,0,0
41,0,0,4292.307692,4155.897436,4297.435897,4306.666667,4341.025641,4457.435897,4516.923077,3987.692308,4411.282051,4058.461538,4324.615385,4468.717949,4112.307692,4925.641026,1593,1739,75.804,18.53155136,0,0,0,0
42,0,0,4292.307692,4153.333333,4297.435897,4300.512821,4342.051282,4454.871795,4518.461538,3991.794872,4418.974359,4061.025641,4326.153846,4468.205128,4113.846154,4930.769231,1593,1741,75.812,18.53155136,0,0,0,0
43,0,0,4298.974359,4157.435897,4299.487179,4307.692308,4344.102564,4450.25641,4517.948718,3993.333333,4416.923077,4064.102564,4327.692308,4464.615385,4113.846154,4930.25641,1594,1739,75.82,18.53155136,0,0,0,0
44,0,0,4303.076923,4159.487179,4298.461538,4310.769231,4344.615385,4451.794872,4517.948718,3990.769231,4412.307692,4064.102564,4328.205128,4461.538462,4110.769231,4918.461538,1592,1739,75.827,18.53155136,0,0,0,0
45,0,0,4297.948718,4156.923077,4291.794872,4305.641026,4342.051282,4454.871795,4518.974359,3989.230769,4412.820513,4061.025641,4325.641026,4455.384615,4101.538462,4903.589744,1593,1739,75.835,18.53155136,0,0,0,0